Data from ha06_a35L_FLMS070571_001.txt Node
Date: Tue Apr 10 16:39:33 EDT 2018
User: peter
Spectrometer: FLMS07057
Trigger mode: 0
Integration Time (sec): 8.000000E0
Scans to average: 2
Electric dark correction enabled: true
Nonlinearity correction enabled: false
Boxcar width: 0
XAxis mode: Wavelengths
Number of Pixels in Spectrum: 2048
>>>>>Begin Spectral Data<<<<<
 339.015 -3.739e-03
 339.393 -3.739e-03
 339.770 -2.217e-03
 340.148  1.603e-02
 340.526  1.681e-02
 340.904  1.623e-02
 341.281 -3.681e-03
 341.659 -3.047e-03
 342.036 -2.497e-03
 342.414  3.171e-04
 342.791  2.365e-03
 343.169  2.556e-03
 343.546  2.414e-03
 343.923  3.405e-04
 344.301 -5.472e-05
 344.678  3.353e-04
 345.055  3.120e-03
 345.432  3.511e-03
 345.810  3.487e-03
 346.187 -2.158e-04
 346.564 -6.956e-04
 346.941 -7.283e-04
 347.318  1.178e-04
 347.695  2.245e-04
 348.071  1.710e-04
 348.448  1.377e-04
 348.825  1.253e-04
 349.202  1.205e-04
 349.578  1.673e-04
 349.955  1.839e-04
 350.332  1.984e-04
 350.708  1.702e-04
 351.085  1.316e-04
 351.461  1.223e-04
 351.838  1.170e-04
 352.214  1.128e-04
 352.591  1.260e-04
 352.967  1.204e-04
 353.343  1.613e-04
 353.719  1.406e-04
 354.096  1.156e-04
 354.472  1.046e-04
 354.848  1.188e-04
 355.224  1.166e-04
 355.600  1.302e-04
 355.976  1.137e-04
 356.352  1.198e-04
 356.728  7.885e-05
 357.104  7.763e-05
 357.479  8.699e-05
 357.855  9.619e-05
 358.231  1.083e-04
 358.607  9.747e-05
 358.982  9.160e-05
 359.358  7.826e-05
 359.734  6.837e-05
 360.109  9.032e-05
 360.484  9.373e-05
 360.860  1.103e-04
 361.235  8.423e-05
 361.611  7.727e-05
 361.986  7.505e-05
 362.361  8.150e-05
 362.736  9.385e-05
 363.112  8.887e-05
 363.487  7.459e-05
 363.862  5.937e-05
 364.237  5.266e-05
 364.612  4.312e-05
 364.987  4.753e-05
 365.362  5.378e-05
 365.737  7.109e-05
 366.112  7.544e-05
 366.486  6.414e-05
 366.861  6.511e-05
 367.236  5.288e-05
 367.610  6.414e-05
 367.985  7.236e-05
 368.360  5.675e-05
 368.734  4.760e-05
 369.109  3.463e-05
 369.483  3.243e-05
 369.858  2.913e-05
 370.232  3.433e-05
 370.606  4.739e-05
 370.981  5.375e-05
 371.355  5.105e-05
 371.729  4.856e-05
 372.103  4.518e-05
 372.477  3.953e-05
 372.851  3.649e-05
 373.225  4.721e-05
 373.599  4.197e-05
 373.973  5.223e-05
 374.347  4.743e-05
 374.721  4.576e-05
 375.095  3.361e-05
 375.469  2.699e-05
 375.842  2.329e-05
 376.216  2.247e-05
 376.590  2.050e-05
 376.963  3.302e-05
 377.337  3.752e-05
 377.710  3.386e-05
 378.084  2.997e-05
 378.457  3.090e-05
 378.831  3.377e-05
 379.204  3.076e-05
 379.577  2.490e-05
 379.951  2.457e-05
 380.324  3.228e-05
 380.697  2.793e-05
 381.070  2.712e-05
 381.443  2.604e-05
 381.816  3.153e-05
 382.189  3.185e-05
 382.562  2.780e-05
 382.935  3.810e-05
 383.308  4.269e-05
 383.681  4.084e-05
 384.054  2.964e-05
 384.426  1.896e-05
 384.799  1.869e-05
 385.172  2.111e-05
 385.544  2.932e-05
 385.917  3.292e-05
 386.290  3.204e-05
 386.662  2.563e-05
 387.034  2.151e-05
 387.407  1.894e-05
 387.779  1.978e-05
 388.152  2.057e-05
 388.524  2.509e-05
 388.896  2.708e-05
 389.268  2.748e-05
 389.640  2.465e-05
 390.013  2.231e-05
 390.385  1.871e-05
 390.757  1.551e-05
 391.129  2.166e-05
 391.500  1.997e-05
 391.872  2.118e-05
 392.244  1.641e-05
 392.616  1.982e-05
 392.988  1.884e-05
 393.360  1.760e-05
 393.731  1.401e-05
 394.103  1.166e-05
 394.474  9.208e-06
 394.846  9.820e-06
 395.217  1.234e-05
 395.589  1.614e-05
 395.960  1.763e-05
 396.332  1.881e-05
 396.703  1.744e-05
 397.074  1.837e-05
 397.446  1.877e-05
 397.817  1.651e-05
 398.188  1.327e-05
 398.559  1.233e-05
 398.930  1.179e-05
 399.301  1.354e-05
 399.672  1.272e-05
 400.043  1.538e-05
 400.414  1.496e-05
 400.785  1.283e-05
 401.156  1.188e-05
 401.526  1.154e-05
 401.897  1.399e-05
 402.268  1.496e-05
 402.638  1.590e-05
 403.009  1.491e-05
 403.380  1.334e-05
 403.750  9.934e-06
 404.121  8.763e-06
 404.491  9.925e-06
 404.861  1.162e-05
 405.232  1.091e-05
 405.602  6.320e-06
 405.972  5.731e-06
 406.342  6.349e-06
 406.713  7.636e-06
 407.083  1.021e-05
 407.453  1.219e-05
 407.823  1.337e-05
 408.193  1.202e-05
 408.563  1.077e-05
 408.933  9.480e-06
 409.302  7.843e-06
 409.672  8.704e-06
 410.042  9.283e-06
 410.412  8.701e-06
 410.781  8.903e-06
 411.151  9.353e-06
 411.521  1.326e-05
 411.890  1.093e-05
 412.260  1.126e-05
 412.629  1.089e-05
 412.999  1.384e-05
 413.368  1.370e-05
 413.737  1.194e-05
 414.107  9.273e-06
 414.476  1.029e-05
 414.845  1.006e-05
 415.214  1.069e-05
 415.583  1.028e-05
 415.952  1.179e-05
 416.322  1.208e-05
 416.691  1.060e-05
 417.059  7.530e-06
 417.428  7.038e-06
 417.797  8.809e-06
 418.166  1.149e-05
 418.535  1.178e-05
 418.904  1.227e-05
 419.272  1.133e-05
 419.641  1.048e-05
 420.009  7.901e-06
 420.378  6.803e-06
 420.747  5.911e-06
 421.115  6.254e-06
 421.483  6.091e-06
 421.852  6.878e-06
 422.220  6.651e-06
 422.588  7.646e-06
 422.957  8.622e-06
 423.325  8.213e-06
 423.693  7.248e-06
 424.061  5.961e-06
 424.429  6.004e-06
 424.797  6.322e-06
 425.165  6.420e-06
 425.533  5.659e-06
 425.901  5.289e-06
 426.269  5.385e-06
 426.637  5.741e-06
 427.005  6.160e-06
 427.372  6.246e-06
 427.740  6.710e-06
 428.108  5.857e-06
 428.475  4.994e-06
 428.843  5.396e-06
 429.210  5.971e-06
 429.578  7.901e-06
 429.945  8.268e-06
 430.312  9.186e-06
 430.680  7.095e-06
 431.047  6.036e-06
 431.414  4.880e-06
 431.782  5.928e-06
 432.149  5.618e-06
 432.516  6.535e-06
 432.883  6.572e-06
 433.250  6.777e-06
 433.617  6.705e-06
 433.984  5.996e-06
 434.351  6.656e-06
 434.718  5.822e-06
 435.084  4.987e-06
 435.451  4.619e-06
 435.818  4.348e-06
 436.184  5.070e-06
 436.551  5.996e-06
 436.918  6.572e-06
 437.284  6.367e-06
 437.651  5.905e-06
 438.017  5.322e-06
 438.384  5.651e-06
 438.750  5.191e-06
 439.116  4.786e-06
 439.483  5.354e-06
 439.849  5.269e-06
 440.215  5.581e-06
 440.581  5.034e-06
 440.947  4.325e-06
 441.313  3.867e-06
 441.679  3.658e-06
 442.045  5.105e-06
 442.411  6.643e-06
 442.777  7.463e-06
 443.143  5.941e-06
 443.509  5.690e-06
 443.874  4.210e-06
 444.240  5.400e-06
 444.606  4.267e-06
 444.971  5.508e-06
 445.337  4.801e-06
 445.703  5.245e-06
 446.068  4.649e-06
 446.433  4.283e-06
 446.799  3.507e-06
 447.164  2.695e-06
 447.530  2.841e-06
 447.895  4.181e-06
 448.260  5.212e-06
 448.625  5.278e-06
 448.990  3.895e-06
 449.355  3.579e-06
 449.720  4.510e-06
 450.085  5.197e-06
 450.450  4.782e-06
 450.815  4.241e-06
 451.180  1.248e-05
 451.545  1.423e-05
 451.910  1.431e-05
 452.275  5.387e-06
 452.639  4.182e-06
 453.004  3.650e-06
 453.369  4.080e-06
 453.733  3.099e-06
 454.098  3.271e-06
 454.462  3.595e-06
 454.826  4.278e-06
 455.191  4.197e-06
 455.555  4.222e-06
 455.919  4.844e-06
 456.284  5.598e-06
 456.648  5.242e-06
 457.012  4.314e-06
 457.376  3.670e-06
 457.740  3.742e-06
 458.104  4.101e-06
 458.468  3.675e-06
 458.832  3.906e-06
 459.196  3.367e-06
 459.560  3.584e-06
 459.924  3.527e-06
 460.288  4.002e-06
 460.651  4.198e-06
 461.015  4.057e-06
 461.379  3.647e-06
 461.742  3.347e-06
 462.106  3.332e-06
 462.469  3.723e-06
 462.833  3.987e-06
 463.196  4.248e-06
 463.559  4.090e-06
 463.923  4.983e-06
 464.286  5.173e-06
 464.649  5.193e-06
 465.012  3.954e-06
 465.376  3.957e-06
 465.739  3.880e-06
 466.102  4.250e-06
 466.465  4.072e-06
 466.828  4.013e-06
 467.191  3.900e-06
 467.553  3.775e-06
 467.916  4.023e-06
 468.279  4.093e-06
 468.642  3.716e-06
 469.004  3.248e-06
 469.367  3.156e-06
 469.730  2.958e-06
 470.092  3.315e-06
 470.455  3.069e-06
 470.817  3.337e-06
 471.180  3.545e-06
 471.542  3.541e-06
 471.904  3.506e-06
 472.267  3.017e-06
 472.629  2.706e-06
 472.991  2.636e-06
 473.353  2.702e-06
 473.715  2.974e-06
 474.078  2.875e-06
 474.440  2.409e-06
 474.802  2.425e-06
 475.163  2.488e-06
 475.525  2.867e-06
 475.887  2.935e-06
 476.249  2.891e-06
 476.611  2.943e-06
 476.972  3.011e-06
 477.334  3.170e-06
 477.696  3.094e-06
 478.057  2.931e-06
 478.419  2.575e-06
 478.780  2.349e-06
 479.142  2.356e-06
 479.503  2.329e-06
 479.865  2.646e-06
 480.226  2.777e-06
 480.587  2.791e-06
 480.948  2.666e-06
 481.310  2.558e-06
 481.671  2.696e-06
 482.032  2.693e-06
 482.393  2.581e-06
 482.754  2.631e-06
 483.115  2.476e-06
 483.476  2.598e-06
 483.837  2.366e-06
 484.197  2.672e-06
 484.558  2.742e-06
 484.919  2.907e-06
 485.280  2.937e-06
 485.640  2.919e-06
 486.001  2.958e-06
 486.361  2.852e-06
 486.722  2.649e-06
 487.082  2.744e-06
 487.443  2.704e-06
 487.803  2.701e-06
 488.163  2.546e-06
 488.524  2.460e-06
 488.884  2.504e-06
 489.244  2.339e-06
 489.604  2.312e-06
 489.964  2.340e-06
 490.324  2.328e-06
 490.684  2.452e-06
 491.044  2.491e-06
 491.404  2.883e-06
 491.764  2.554e-06
 492.124  2.526e-06
 492.484  2.485e-06
 492.843  2.839e-06
 493.203  2.789e-06
 493.563  2.612e-06
 493.922  2.544e-06
 494.282  2.579e-06
 494.642  2.622e-06
 495.001  2.630e-06
 495.360  2.689e-06
 495.720  2.702e-06
 496.079  2.678e-06
 496.438  2.540e-06
 496.798  2.530e-06
 497.157  2.471e-06
 497.516  2.518e-06
 497.875  2.500e-06
 498.234  2.657e-06
 498.593  2.693e-06
 498.952  2.719e-06
 499.311  2.881e-06
 499.670  2.808e-06
 500.029  2.727e-06
 500.388  2.764e-06
 500.746  2.875e-06
 501.105  3.066e-06
 501.464  2.871e-06
 501.822  3.184e-06
 502.181  3.228e-06
 502.539  3.226e-06
 502.898  3.052e-06
 503.256  3.127e-06
 503.615  3.283e-06
 503.973  3.433e-06
 504.331  3.429e-06
 504.690  3.363e-06
 505.048  3.083e-06
 505.406  3.050e-06
 505.764  3.034e-06
 506.122  3.172e-06
 506.480  3.320e-06
 506.838  3.441e-06
 507.196  3.395e-06
 507.554  3.394e-06
 507.912  3.486e-06
 508.270  3.756e-06
 508.627  3.557e-06
 508.985  3.489e-06
 509.343  3.401e-06
 509.700  3.591e-06
 510.058  3.566e-06
 510.415  3.650e-06
 510.773  3.671e-06
 511.130  3.897e-06
 511.488  3.966e-06
 511.845  3.928e-06
 512.202  3.859e-06
 512.560  3.950e-06
 512.917  4.047e-06
 513.274  4.128e-06
 513.631  4.000e-06
 513.988  4.086e-06
 514.345  4.019e-06
 514.702  3.939e-06
 515.059  3.976e-06
 515.416  3.989e-06
 515.773  4.233e-06
 516.130  4.197e-06
 516.486  4.366e-06
 516.843  4.406e-06
 517.200  4.560e-06
 517.556  4.601e-06
 517.913  4.583e-06
 518.269  4.755e-06
 518.626  4.799e-06
 518.982  4.958e-06
 519.339  4.888e-06
 519.695  4.894e-06
 520.051  4.868e-06
 520.408  4.940e-06
 520.764  5.065e-06
 521.120  5.139e-06
 521.476  5.178e-06
 521.832  5.165e-06
 522.188  5.145e-06
 522.544  5.117e-06
 522.900  5.198e-06
 523.256  5.377e-06
 523.612  5.295e-06
 523.968  5.335e-06
 524.323  5.368e-06
 524.679  5.448e-06
 525.035  5.412e-06
 525.390  5.347e-06
 525.746  5.418e-06
 526.102  5.605e-06
 526.457  5.780e-06
 526.812  5.789e-06
 527.168  5.760e-06
 527.523  5.682e-06
 527.878  5.666e-06
 528.234  5.684e-06
 528.589  5.792e-06
 528.944  5.855e-06
 529.299  5.925e-06
 529.654  5.905e-06
 530.009  6.044e-06
 530.364  5.963e-06
 530.719  6.038e-06
 531.074  5.990e-06
 531.429  6.150e-06
 531.784  6.098e-06
 532.138  6.200e-06
 532.493  6.216e-06
 532.848  6.321e-06
 533.202  6.506e-06
 533.557  6.526e-06
 533.911  6.621e-06
 534.266  6.605e-06
 534.620  6.660e-06
 534.975  6.654e-06
 535.329  6.697e-06
 535.683  6.712e-06
 536.038  6.691e-06
 536.392  6.684e-06
 536.746  6.789e-06
 537.100  6.908e-06
 537.454  6.857e-06
 537.808  6.847e-06
 538.162  6.954e-06
 538.516  7.100e-06
 538.870  7.138e-06
 539.224  7.055e-06
 539.577  7.179e-06
 539.931  7.471e-06
 540.285  7.584e-06
 540.639  7.565e-06
 540.992  7.341e-06
 541.346  7.362e-06
 541.699  7.445e-06
 542.053  7.811e-06
 542.406  7.967e-06
 542.759  8.091e-06
 543.113  7.942e-06
 543.466  7.982e-06
 543.819  8.066e-06
 544.172  8.144e-06
 544.526  8.262e-06
 544.879  8.341e-06
 545.232  8.460e-06
 545.585  8.443e-06
 545.938  8.489e-06
 546.291  8.459e-06
 546.643  8.593e-06
 546.996  8.707e-06
 547.349  8.898e-06
 547.702  9.107e-06
 548.054  9.196e-06
 548.407  9.281e-06
 548.760  9.300e-06
 549.112  9.442e-06
 549.465  9.613e-06
 549.817  9.823e-06
 550.169  9.849e-06
 550.522  9.983e-06
 550.874  1.010e-05
 551.226  1.045e-05
 551.579  1.053e-05
 551.931  1.074e-05
 552.283  1.082e-05
 552.635  1.111e-05
 552.987  1.115e-05
 553.339  1.114e-05
 553.691  1.122e-05
 554.043  1.134e-05
 554.395  1.162e-05
 554.746  1.185e-05
 555.098  1.212e-05
 555.450  1.235e-05
 555.802  1.264e-05
 556.153  1.268e-05
 556.505  1.273e-05
 556.856  1.272e-05
 557.208  1.298e-05
 557.559  1.329e-05
 557.911  1.347e-05
 558.262  1.373e-05
 558.613  1.388e-05
 558.964  1.422e-05
 559.316  1.447e-05
 559.667  1.471e-05
 560.018  1.484e-05
 560.369  1.489e-05
 560.720  1.492e-05
 561.071  1.518e-05
 561.422  1.542e-05
 561.773  1.570e-05
 562.124  1.584e-05
 562.474  1.608e-05
 562.825  1.652e-05
 563.176  1.686e-05
 563.526  1.719e-05
 563.877  1.732e-05
 564.228  1.752e-05
 564.578  1.752e-05
 564.928  1.775e-05
 565.279  1.795e-05
 565.629  1.839e-05
 565.980  1.869e-05
 566.330  1.907e-05
 566.680  1.935e-05
 567.030  1.951e-05
 567.380  1.969e-05
 567.730  1.997e-05
 568.080  2.032e-05
 568.430  2.057e-05
 568.780  2.090e-05
 569.130  2.112e-05
 569.480  2.159e-05
 569.830  2.166e-05
 570.180  2.193e-05
 570.529  2.198e-05
 570.879  2.232e-05
 571.229  2.280e-05
 571.578  2.316e-05
 571.928  2.352e-05
 572.277  2.367e-05
 572.627  2.381e-05
 572.976  2.405e-05
 573.325  2.424e-05
 573.675  2.458e-05
 574.024  2.497e-05
 574.373  2.527e-05
 574.722  2.550e-05
 575.071  2.571e-05
 575.420  2.607e-05
 575.769  2.642e-05
 576.118  2.667e-05
 576.467  2.710e-05
 576.816  2.742e-05
 577.165  2.770e-05
 577.514  2.797e-05
 577.863  2.852e-05
 578.211  2.880e-05
 578.560  2.908e-05
 578.908  2.928e-05
 579.257  2.967e-05
 579.606  2.999e-05
 579.954  3.039e-05
 580.302  3.097e-05
 580.651  3.137e-05
 580.999  3.159e-05
 581.347  3.173e-05
 581.696  3.203e-05
 582.044  3.234e-05
 582.392  3.291e-05
 582.740  3.335e-05
 583.088  3.365e-05
 583.436  3.395e-05
 583.784  3.431e-05
 584.132  3.473e-05
 584.480  3.499e-05
 584.827  3.516e-05
 585.175  3.548e-05
 585.523  3.546e-05
 585.870  3.600e-05
 586.218  3.642e-05
 586.566  3.715e-05
 586.913  3.730e-05
 587.261  3.749e-05
 587.608  3.784e-05
 587.955  3.810e-05
 588.303  3.862e-05
 588.650  3.888e-05
 588.997  3.943e-05
 589.344  3.978e-05
 589.692  4.011e-05
 590.039  4.053e-05
 590.386  4.095e-05
 590.733  4.119e-05
 591.080  4.143e-05
 591.427  4.172e-05
 591.773  4.218e-05
 592.120  4.252e-05
 592.467  4.307e-05
 592.814  4.347e-05
 593.160  4.392e-05
 593.507  4.408e-05
 593.854  4.439e-05
 594.200  4.472e-05
 594.547  4.496e-05
 594.893  4.528e-05
 595.239  4.558e-05
 595.586  4.587e-05
 595.932  4.618e-05
 596.278  4.652e-05
 596.624  4.714e-05
 596.971  4.773e-05
 597.317  4.820e-05
 597.663  4.851e-05
 598.009  4.877e-05
 598.355  4.896e-05
 598.701  4.923e-05
 599.046  4.937e-05
 599.392  4.986e-05
 599.738  4.988e-05
 600.084  5.025e-05
 600.429  5.037e-05
 600.775  5.082e-05
 601.121  5.124e-05
 601.466  5.152e-05
 601.812  5.188e-05
 602.157  5.211e-05
 602.503  5.255e-05
 602.848  5.298e-05
 603.193  5.323e-05
 603.538  5.329e-05
 603.884  5.337e-05
 604.229  5.373e-05
 604.574  5.417e-05
 604.919  5.460e-05
 605.264  5.482e-05
 605.609  5.497e-05
 605.954  5.521e-05
 606.299  5.545e-05
 606.644  5.572e-05
 606.988  5.585e-05
 607.333  5.592e-05
 607.678  5.601e-05
 608.022  5.657e-05
 608.367  5.688e-05
 608.712  5.733e-05
 609.056  5.721e-05
 609.400  5.769e-05
 609.745  5.801e-05
 610.089  5.855e-05
 610.434  5.839e-05
 610.778  5.839e-05
 611.122  5.853e-05
 611.466  5.898e-05
 611.810  5.899e-05
 612.154  5.911e-05
 612.498  5.910e-05
 612.842  5.975e-05
 613.186  6.005e-05
 613.530  6.027e-05
 613.874  6.041e-05
 614.218  6.029e-05
 614.561  6.078e-05
 614.905  6.088e-05
 615.249  6.118e-05
 615.592  6.135e-05
 615.936  6.155e-05
 616.279  6.150e-05
 616.623  6.193e-05
 616.966  6.200e-05
 617.310  6.218e-05
 617.653  6.176e-05
 617.996  6.192e-05
 618.339  6.228e-05
 618.683  6.241e-05
 619.026  6.237e-05
 619.369  6.260e-05
 619.712  6.321e-05
 620.055  6.385e-05
 620.398  6.391e-05
 620.741  6.378e-05
 621.083  6.365e-05
 621.426  6.395e-05
 621.769  6.399e-05
 622.112  6.449e-05
 622.454  6.464e-05
 622.797  6.506e-05
 623.139  6.478e-05
 623.482  6.489e-05
 623.824  6.510e-05
 624.167  6.547e-05
 624.509  6.558e-05
 624.851  6.531e-05
 625.194  6.576e-05
 625.536  6.609e-05
 625.878  6.669e-05
 626.220  6.674e-05
 626.562  6.698e-05
 626.904  6.724e-05
 627.246  6.714e-05
 627.588  6.734e-05
 627.930  6.760e-05
 628.272  6.791e-05
 628.614  6.828e-05
 628.955  6.846e-05
 629.297  6.891e-05
 629.639  6.895e-05
 629.980  6.902e-05
 630.322  6.907e-05
 630.663  6.931e-05
 631.005  6.968e-05
 631.346  7.009e-05
 631.688  7.029e-05
 632.029  7.045e-05
 632.370  7.068e-05
 632.711  7.073e-05
 633.052  7.099e-05
 633.394  7.102e-05
 633.735  7.124e-05
 634.076  7.110e-05
 634.417  7.116e-05
 634.758  7.135e-05
 635.098  7.160e-05
 635.439  7.182e-05
 635.780  7.176e-05
 636.121  7.179e-05
 636.461  7.172e-05
 636.802  7.179e-05
 637.143  7.188e-05
 637.483  7.200e-05
 637.824  7.210e-05
 638.164  7.210e-05
 638.505  7.173e-05
 638.845  7.170e-05
 639.185  7.142e-05
 639.525  7.146e-05
 639.866  7.127e-05
 640.206  7.110e-05
 640.546  7.118e-05
 640.886  7.088e-05
 641.226  7.098e-05
 641.566  7.078e-05
 641.906  7.077e-05
 642.246  7.081e-05
 642.585  7.065e-05
 642.925  7.046e-05
 643.265  6.996e-05
 643.605  6.968e-05
 643.944  6.963e-05
 644.284  6.933e-05
 644.623  6.900e-05
 644.963  6.859e-05
 645.302  6.836e-05
 645.642  6.822e-05
 645.981  6.835e-05
 646.320  6.858e-05
 646.660  6.831e-05
 646.999  6.765e-05
 647.338  6.718e-05
 647.677  6.734e-05
 648.016  6.790e-05
 648.355  6.804e-05
 648.694  6.798e-05
 649.033  6.772e-05
 649.372  6.802e-05
 649.711  6.793e-05
 650.049  6.800e-05
 650.388  6.772e-05
 650.727  6.788e-05
 651.065  6.814e-05
 651.404  6.831e-05
 651.742  6.864e-05
 652.081  6.849e-05
 652.419  6.862e-05
 652.758  6.895e-05
 653.096  6.933e-05
 653.434  6.959e-05
 653.772  6.954e-05
 654.111  6.968e-05
 654.449  6.979e-05
 654.787  7.011e-05
 655.125  6.990e-05
 655.463  6.988e-05
 655.801  6.984e-05
 656.139  7.004e-05
 656.476  7.003e-05
 656.814  7.006e-05
 657.152  7.018e-05
 657.490  6.993e-05
 657.827  6.968e-05
 658.165  6.941e-05
 658.503  6.952e-05
 658.840  6.927e-05
 659.177  6.883e-05
 659.515  6.854e-05
 659.852  6.824e-05
 660.190  6.814e-05
 660.527  6.764e-05
 660.864  6.715e-05
 661.201  6.648e-05
 661.538  6.613e-05
 661.875  6.556e-05
 662.212  6.510e-05
 662.549  6.456e-05
 662.886  6.371e-05
 663.223  6.291e-05
 663.560  6.219e-05
 663.897  6.203e-05
 664.233  6.181e-05
 664.570  6.129e-05
 664.907  6.050e-05
 665.243  5.992e-05
 665.580  5.933e-05
 665.916  5.888e-05
 666.253  5.823e-05
 666.589  5.761e-05
 666.925  5.718e-05
 667.262  5.671e-05
 667.598  5.633e-05
 667.934  5.595e-05
 668.270  5.535e-05
 668.606  5.510e-05
 668.942  5.500e-05
 669.278  5.500e-05
 669.614  5.446e-05
 669.950  5.394e-05
 670.286  5.367e-05
 670.622  5.352e-05
 670.958  5.299e-05
 671.293  5.251e-05
 671.629  5.237e-05
 671.965  5.227e-05
 672.300  5.248e-05
 672.636  5.251e-05
 672.971  5.264e-05
 673.307  5.266e-05
 673.642  5.275e-05
 673.977  5.309e-05
 674.313  5.316e-05
 674.648  5.310e-05
 674.983  5.328e-05
 675.318  5.381e-05
 675.653  5.439e-05
 675.988  5.442e-05
 676.323  5.445e-05
 676.658  5.484e-05
 676.993  5.548e-05
 677.328  5.578e-05
 677.663  5.625e-05
 677.997  5.660e-05
 678.332  5.745e-05
 678.667  5.788e-05
 679.001  5.868e-05
 679.336  5.933e-05
 679.670  6.030e-05
 680.005  6.114e-05
 680.339  6.218e-05
 680.673  6.307e-05
 681.008  6.389e-05
 681.342  6.467e-05
 681.676  6.602e-05
 682.010  6.766e-05
 682.344  6.924e-05
 682.678  7.055e-05
 683.012  7.189e-05
 683.346  7.324e-05
 683.680  7.505e-05
 684.014  7.718e-05
 684.348  7.923e-05
 684.682  8.113e-05
 685.015  8.269e-05
 685.349  8.489e-05
 685.682  8.697e-05
 686.016  8.911e-05
 686.350  9.125e-05
 686.683  9.389e-05
 687.016  9.632e-05
 687.350  9.869e-05
 687.683  1.009e-04
 688.016  1.036e-04
