Data from ha04_a30L_FLMS070571_001.txt Node
Date: Tue Apr 10 14:05:12 EDT 2018
User: peter
Spectrometer: FLMS07057
Trigger mode: 0
Integration Time (sec): 1.000000E0
Scans to average: 9
Electric dark correction enabled: true
Nonlinearity correction enabled: false
Boxcar width: 0
XAxis mode: Wavelengths
Number of Pixels in Spectrum: 2048
>>>>>Begin Spectral Data<<<<<
 339.015        NaN
 339.393        NaN
 339.770        NaN
 340.148        NaN
 340.526        NaN
 340.904        NaN
 341.281        NaN
 341.659        NaN
 342.036        NaN
 342.414        NaN
 342.791        NaN
 343.169        NaN
 343.546        NaN
 343.923        NaN
 344.301        NaN
 344.678        NaN
 345.055        NaN
 345.432        NaN
 345.810        NaN
 346.187        NaN
 346.564        NaN
 346.941        NaN
 347.318        NaN
 347.695        NaN
 348.071        NaN
 348.448        NaN
 348.825        NaN
 349.202        NaN
 349.578        NaN
 349.955        NaN
 350.332        NaN
 350.708        NaN
 351.085        NaN
 351.461        NaN
 351.838        NaN
 352.214        NaN
 352.591        NaN
 352.967        NaN
 353.343        NaN
 353.719        NaN
 354.096        NaN
 354.472        NaN
 354.848        NaN
 355.224        NaN
 355.600        NaN
 355.976        NaN
 356.352        NaN
 356.728        NaN
 357.104        NaN
 357.479        NaN
 357.855        NaN
 358.231        NaN
 358.607        NaN
 358.982        NaN
 359.358        NaN
 359.734        NaN
 360.109        NaN
 360.484        NaN
 360.860        NaN
 361.235        NaN
 361.611        NaN
 361.986        NaN
 362.361        NaN
 362.736        NaN
 363.112        NaN
 363.487        NaN
 363.862        NaN
 364.237        NaN
 364.612        NaN
 364.987        NaN
 365.362        NaN
 365.737        NaN
 366.112        NaN
 366.486        NaN
 366.861        NaN
 367.236        NaN
 367.610        NaN
 367.985        NaN
 368.360        NaN
 368.734        NaN
 369.109        NaN
 369.483        NaN
 369.858        NaN
 370.232        NaN
 370.606        NaN
 370.981        NaN
 371.355        NaN
 371.729        NaN
 372.103        NaN
 372.477        NaN
 372.851        NaN
 373.225        NaN
 373.599        NaN
 373.973        NaN
 374.347        NaN
 374.721        NaN
 375.095        NaN
 375.469        NaN
 375.842        NaN
 376.216        NaN
 376.590        NaN
 376.963        NaN
 377.337        NaN
 377.710        NaN
 378.084        NaN
 378.457        NaN
 378.831        NaN
 379.204        NaN
 379.577        NaN
 379.951        NaN
 380.324        NaN
 380.697        NaN
 381.070        NaN
 381.443        NaN
 381.816        NaN
 382.189        NaN
 382.562        NaN
 382.935        NaN
 383.308        NaN
 383.681        NaN
 384.054        NaN
 384.426        NaN
 384.799        NaN
 385.172        NaN
 385.544        NaN
 385.917        NaN
 386.290        NaN
 386.662        NaN
 387.034        NaN
 387.407        NaN
 387.779        NaN
 388.152        NaN
 388.524        NaN
 388.896        NaN
 389.268        NaN
 389.640        NaN
 390.013        NaN
 390.385        NaN
 390.757        NaN
 391.129        NaN
 391.500        NaN
 391.872        NaN
 392.244        NaN
 392.616        NaN
 392.988        NaN
 393.360        NaN
 393.731        NaN
 394.103        NaN
 394.474        NaN
 394.846        NaN
 395.217 -8.133e-06
 395.589  5.054e-06
 395.960  7.445e-06
 396.332  1.472e-05
 396.703  1.472e-05
 397.074 -1.252e-06
 397.446 -1.559e-05
 397.817 -1.983e-05
 398.188  1.385e-06
 398.559  6.561e-06
 398.930 -1.160e-06
 399.301 -1.748e-05
 399.672 -1.208e-05
 400.043 -5.393e-06
 400.414  2.399e-06
 400.785  2.914e-06
 401.156  6.556e-06
 401.526  5.838e-06
 401.897  6.140e-06
 402.268  3.392e-06
 402.638  4.173e-06
 403.009  1.098e-05
 403.380  9.211e-06
 403.750  2.984e-07
 404.121 -1.080e-05
 404.491 -1.688e-05
 404.861 -8.028e-06
 405.232 -1.238e-05
 405.602 -4.177e-06
 405.972  6.100e-07
 406.342  4.901e-06
 406.713 -8.210e-06
 407.083 -1.635e-05
 407.453 -1.764e-05
 407.823 -1.050e-05
 408.193 -9.069e-06
 408.563 -2.679e-06
 408.933 -7.421e-06
 409.302 -5.264e-06
 409.672 -3.554e-06
 410.042  1.017e-05
 410.412  7.769e-06
 410.781  3.736e-06
 411.151  2.983e-06
 411.521  6.673e-06
 411.890  3.550e-06
 412.260  4.577e-06
 412.629  8.968e-06
 412.999  7.426e-06
 413.368  2.906e-06
 413.737 -4.840e-06
 414.107  6.568e-08
 414.476 -1.229e-06
 414.845 -2.022e-06
 415.214  2.141e-06
 415.583  6.405e-06
 415.952  9.662e-06
 416.322  4.246e-06
 416.691 -1.115e-06
 417.059 -3.253e-06
 417.428 -4.718e-06
 417.797 -3.659e-06
 418.166 -1.055e-06
 418.535  8.051e-06
 418.904  8.061e-06
 419.272  4.194e-06
 419.641 -3.715e-07
 420.009 -3.696e-06
 420.378 -1.684e-06
 420.747 -2.434e-06
 421.115  1.245e-06
 421.483 -2.864e-06
 421.852 -4.345e-06
 422.220 -3.067e-06
 422.588  1.384e-06
 422.957 -1.269e-06
 423.325 -4.099e-06
 423.693 -2.649e-06
 424.061  2.304e-07
 424.429  2.409e-06
 424.797 -3.562e-07
 425.165  6.321e-07
 425.533 -2.564e-06
 425.901 -2.700e-06
 426.269 -5.165e-06
 426.637 -4.674e-06
 427.005 -1.062e-06
 427.372 -2.176e-06
 427.740 -1.365e-07
 428.108 -2.420e-06
 428.475  1.098e-06
 428.843  1.389e-06
 429.210 -2.018e-06
 429.578 -2.557e-06
 429.945 -2.621e-06
 430.312  2.210e-06
 430.680 -9.277e-07
 431.047  2.336e-06
 431.414  1.157e-06
 431.782  6.887e-06
 432.149  3.649e-06
 432.516  1.560e-06
 432.883  2.524e-07
 433.250 -3.311e-06
 433.617 -7.666e-06
 433.984 -8.877e-06
 434.351 -5.018e-06
 434.718 -9.887e-07
 435.084 -4.479e-06
 435.451 -7.652e-06
 435.818 -7.991e-06
 436.184 -7.506e-06
 436.551 -6.049e-06
 436.918 -5.888e-06
 437.284 -5.649e-06
 437.651 -4.335e-06
 438.017 -1.512e-06
 438.384 -1.041e-06
 438.750  1.104e-06
 439.116  2.699e-06
 439.483  4.137e-06
 439.849  1.570e-06
 440.215 -2.909e-06
 440.581 -2.392e-06
 440.947 -7.325e-07
 441.313  4.323e-06
 441.679  3.333e-06
 442.045  2.727e-07
 442.411 -5.044e-06
 442.777 -1.903e-06
 443.143 -1.113e-06
 443.509  3.364e-06
 443.874  3.798e-06
 444.240  3.314e-06
 444.606  1.884e-07
 444.971 -1.983e-06
 445.337 -1.550e-06
 445.703 -1.007e-06
 446.068 -1.713e-06
 446.433 -6.415e-07
 446.799  7.881e-07
 447.164  3.140e-06
 447.530  3.780e-06
 447.895  2.848e-06
 448.260  6.953e-07
 448.625 -2.623e-06
 448.990  7.241e-08
 449.355  1.315e-08
 449.720  2.944e-06
 450.085  3.896e-08
 450.450 -1.107e-06
 450.815 -2.527e-06
 451.180 -4.634e-06
 451.545 -3.325e-06
 451.910 -1.344e-06
 452.275 -1.027e-06
 452.639 -1.522e-06
 453.004 -3.331e-06
 453.369 -9.709e-07
 453.733 -2.541e-06
 454.098 -2.221e-06
 454.462 -1.677e-06
 454.826 -1.303e-07
 455.191  2.171e-06
 455.555  1.627e-06
 455.919  2.140e-06
 456.284  1.250e-06
 456.648  2.982e-07
 457.012 -1.852e-07
 457.376 -4.491e-07
 457.740 -1.756e-06
 458.104 -3.279e-06
 458.468 -4.342e-06
 458.832 -2.344e-06
 459.196  4.349e-07
 459.560  1.402e-06
 459.924  1.973e-06
 460.288  4.584e-07
 460.651 -6.914e-07
 461.015 -1.493e-06
 461.379 -4.509e-07
 461.742  3.130e-07
 462.106 -7.144e-08
 462.469 -6.675e-07
 462.833  5.666e-07
 463.196  1.789e-06
 463.559  1.634e-06
 463.923 -2.290e-07
 464.286 -1.164e-06
 464.649 -2.837e-07
 465.012 -1.195e-06
 465.376 -4.776e-07
 465.739 -2.021e-06
 466.102 -1.960e-06
 466.465 -2.893e-06
 466.828 -1.623e-06
 467.191  6.301e-07
 467.553  1.033e-06
 467.916 -1.118e-06
 468.279 -2.903e-06
 468.642 -3.835e-06
 469.004 -1.414e-06
 469.367 -3.656e-07
 469.730  1.310e-06
 470.092 -9.663e-08
 470.455 -2.410e-07
 470.817 -2.342e-06
 471.180 -2.129e-06
 471.542 -1.378e-06
 471.904 -2.897e-07
 472.267 -5.485e-07
 472.629  6.415e-07
 472.991  3.984e-07
 473.353 -1.137e-07
 473.715 -2.430e-06
 474.078 -2.314e-06
 474.440 -1.306e-06
 474.802 -1.359e-06
 475.163 -1.386e-06
 475.525 -1.952e-06
 475.887 -5.775e-07
 476.249 -3.321e-07
 476.611 -3.841e-09
 476.972 -4.201e-07
 477.334 -6.647e-07
 477.696 -4.204e-07
 478.057 -1.355e-06
 478.419 -1.056e-06
 478.780 -1.258e-06
 479.142 -1.421e-06
 479.503 -2.230e-06
 479.865 -2.750e-06
 480.226 -2.473e-06
 480.587 -2.933e-06
 480.948 -2.258e-06
 481.310 -2.306e-06
 481.671 -7.523e-07
 482.032 -6.338e-07
 482.393  5.891e-09
 482.754 -5.745e-07
 483.115 -1.160e-06
 483.476 -1.031e-06
 483.837 -1.417e-06
 484.197 -3.622e-07
 484.558 -6.942e-07
 484.919  2.408e-07
 485.280 -1.119e-06
 485.640 -1.224e-06
 486.001 -1.685e-06
 486.361 -1.231e-06
 486.722 -1.337e-06
 487.082 -1.292e-06
 487.443 -8.632e-09
 487.803 -6.545e-08
 488.163  6.680e-08
 488.524 -4.136e-07
 488.884 -4.593e-07
 489.244 -9.137e-07
 489.604 -7.560e-07
 489.964 -4.291e-08
 490.324  3.330e-07
 490.684  5.038e-07
 491.044  5.326e-07
 491.404  3.363e-07
 491.764 -1.012e-06
 492.124 -1.737e-06
 492.484 -1.319e-06
 492.843 -6.890e-07
 493.203 -2.476e-07
 493.563 -7.519e-07
 493.922 -9.517e-07
 494.282 -5.181e-07
 494.642  1.990e-07
 495.001  4.097e-07
 495.360 -1.182e-07
 495.720 -3.188e-08
 496.079  7.569e-07
 496.438  8.513e-07
 496.798  5.642e-07
 497.157 -1.437e-07
 497.516 -5.327e-07
 497.875 -9.220e-07
 498.234 -9.871e-07
 498.593 -7.752e-07
 498.952 -3.624e-07
 499.311 -1.994e-07
 499.670 -4.185e-07
 500.029 -5.670e-07
 500.388 -2.855e-07
 500.746 -1.116e-07
 501.105  3.112e-07
 501.464  1.291e-07
 501.822  4.504e-07
 502.181  4.994e-07
 502.539  7.166e-07
 502.898  9.031e-07
 503.256  5.667e-07
 503.615  7.496e-07
 503.973  8.190e-07
 504.331  1.161e-06
 504.690  8.775e-07
 505.048  6.632e-07
 505.406  2.927e-07
 505.764  6.173e-07
 506.122  5.279e-07
 506.480  8.261e-07
 506.838  6.646e-07
 507.196  6.628e-07
 507.554  9.367e-07
 507.912  1.207e-06
 508.270  1.242e-06
 508.627  1.200e-06
 508.985  9.126e-07
 509.343  9.539e-07
 509.700  7.752e-07
 510.058  9.369e-07
 510.415  1.181e-06
 510.773  1.542e-06
 511.130  1.256e-06
 511.488  1.538e-06
 511.845  1.474e-06
 512.202  1.772e-06
 512.560  1.820e-06
 512.917  2.455e-06
 513.274  2.526e-06
 513.631  2.509e-06
 513.988  2.115e-06
 514.345  2.482e-06
 514.702  2.554e-06
 515.059  2.328e-06
 515.416  2.001e-06
 515.773  2.115e-06
 516.130  2.672e-06
 516.486  2.882e-06
 516.843  3.164e-06
 517.200  3.249e-06
 517.556  3.512e-06
 517.913  3.111e-06
 518.269  3.201e-06
 518.626  3.720e-06
 518.982  3.989e-06
 519.339  4.016e-06
 519.695  3.926e-06
 520.051  4.471e-06
 520.408  4.048e-06
 520.764  4.136e-06
 521.120  3.738e-06
 521.476  4.133e-06
 521.832  3.868e-06
 522.188  4.299e-06
 522.544  4.908e-06
 522.900  4.793e-06
 523.256  4.800e-06
 523.612  4.635e-06
 523.968  5.063e-06
 524.323  5.196e-06
 524.679  4.975e-06
 525.035  5.144e-06
 525.390  5.173e-06
 525.746  5.479e-06
 526.102  5.372e-06
 526.457  5.657e-06
 526.812  5.566e-06
 527.168  5.441e-06
 527.523  5.283e-06
 527.878  5.553e-06
 528.234  6.270e-06
 528.589  6.356e-06
 528.944  6.632e-06
 529.299  6.526e-06
 529.654  6.807e-06
 530.009  6.570e-06
 530.364  6.966e-06
 530.719  6.806e-06
 531.074  6.925e-06
 531.429  6.941e-06
 531.784  7.346e-06
 532.138  7.175e-06
 532.493  7.071e-06
 532.848  7.314e-06
 533.202  7.772e-06
 533.557  7.920e-06
 533.911  7.760e-06
 534.266  7.917e-06
 534.620  7.787e-06
 534.975  7.933e-06
 535.329  7.786e-06
 535.683  8.336e-06
 536.038  8.322e-06
 536.392  8.668e-06
 536.746  8.825e-06
 537.100  9.251e-06
 537.454  9.250e-06
 537.808  8.914e-06
 538.162  8.629e-06
 538.516  9.085e-06
 538.870  9.225e-06
 539.224  9.782e-06
 539.577  9.838e-06
 539.931  9.964e-06
 540.285  9.714e-06
 540.639  9.184e-06
 540.992  9.143e-06
 541.346  9.486e-06
 541.699  1.006e-05
 542.053  1.039e-05
 542.406  1.011e-05
 542.759  1.029e-05
 543.113  1.042e-05
 543.466  1.087e-05
 543.819  1.100e-05
 544.172  1.120e-05
 544.526  1.136e-05
 544.879  1.138e-05
 545.232  1.178e-05
 545.585  1.176e-05
 545.938  1.192e-05
 546.291  1.183e-05
 546.643  1.202e-05
 546.996  1.268e-05
 547.349  1.304e-05
 547.702  1.363e-05
 548.054  1.373e-05
 548.407  1.403e-05
 548.760  1.431e-05
 549.112  1.466e-05
 549.465  1.483e-05
 549.817  1.517e-05
 550.169  1.520e-05
 550.522  1.600e-05
 550.874  1.616e-05
 551.226  1.673e-05
 551.579  1.686e-05
 551.931  1.737e-05
 552.283  1.747e-05
 552.635  1.760e-05
 552.987  1.791e-05
 553.339  1.882e-05
 553.691  1.926e-05
 554.043  1.947e-05
 554.395  1.948e-05
 554.746  1.985e-05
 555.098  1.999e-05
 555.450  2.046e-05
 555.802  2.073e-05
 556.153  2.090e-05
 556.505  2.080e-05
 556.856  2.070e-05
 557.208  2.133e-05
 557.559  2.211e-05
 557.911  2.312e-05
 558.262  2.366e-05
 558.613  2.387e-05
 558.964  2.394e-05
 559.316  2.449e-05
 559.667  2.504e-05
 560.018  2.561e-05
 560.369  2.596e-05
 560.720  2.615e-05
 561.071  2.639e-05
 561.422  2.614e-05
 561.773  2.638e-05
 562.124  2.671e-05
 562.474  2.723e-05
 562.825  2.782e-05
 563.176  2.837e-05
 563.526  2.874e-05
 563.877  2.904e-05
 564.228  2.911e-05
 564.578  2.992e-05
 564.928  3.017e-05
 565.279  3.051e-05
 565.629  3.065e-05
 565.980  3.126e-05
 566.330  3.167e-05
 566.680  3.186e-05
 567.030  3.207e-05
 567.380  3.233e-05
 567.730  3.263e-05
 568.080  3.249e-05
 568.430  3.253e-05
 568.780  3.272e-05
 569.130  3.361e-05
 569.480  3.400e-05
 569.830  3.439e-05
 570.180  3.440e-05
 570.529  3.494e-05
 570.879  3.533e-05
 571.229  3.543e-05
 571.578  3.532e-05
 571.928  3.528e-05
 572.277  3.537e-05
 572.627  3.594e-05
 572.976  3.613e-05
 573.325  3.642e-05
 573.675  3.652e-05
 574.024  3.672e-05
 574.373  3.722e-05
 574.722  3.757e-05
 575.071  3.830e-05
 575.420  3.843e-05
 575.769  3.843e-05
 576.118  3.813e-05
 576.467  3.866e-05
 576.816  3.895e-05
 577.165  3.892e-05
 577.514  3.878e-05
 577.863  3.916e-05
 578.211  4.002e-05
 578.560  4.044e-05
 578.908  4.076e-05
 579.257  4.121e-05
 579.606  4.153e-05
 579.954  4.155e-05
 580.302  4.178e-05
 580.651  4.183e-05
 580.999  4.202e-05
 581.347  4.225e-05
 581.696  4.259e-05
 582.044  4.297e-05
 582.392  4.251e-05
 582.740  4.297e-05
 583.088  4.353e-05
 583.436  4.410e-05
 583.784  4.382e-05
 584.132  4.350e-05
 584.480  4.382e-05
 584.827  4.435e-05
 585.175  4.474e-05
 585.523  4.491e-05
 585.870  4.512e-05
 586.218  4.565e-05
 586.566  4.562e-05
 586.913  4.555e-05
 587.261  4.583e-05
 587.608  4.652e-05
 587.955  4.686e-05
 588.303  4.705e-05
 588.650  4.672e-05
 588.997  4.687e-05
 589.344  4.705e-05
 589.692  4.776e-05
 590.039  4.844e-05
 590.386  4.865e-05
 590.733  4.887e-05
 591.080  4.924e-05
 591.427  4.927e-05
 591.773  4.940e-05
 592.120  4.933e-05
 592.467  4.929e-05
 592.814  4.915e-05
 593.160  4.910e-05
 593.507  4.940e-05
 593.854  4.996e-05
 594.200  5.046e-05
 594.547  5.092e-05
 594.893  5.123e-05
 595.239  5.157e-05
 595.586  5.190e-05
 595.932  5.206e-05
 596.278  5.215e-05
 596.624  5.230e-05
 596.971  5.257e-05
 597.317  5.259e-05
 597.663  5.304e-05
 598.009  5.362e-05
 598.355  5.429e-05
 598.701  5.433e-05
 599.046  5.376e-05
 599.392  5.360e-05
 599.738  5.374e-05
 600.084  5.405e-05
 600.429  5.390e-05
 600.775  5.374e-05
 601.121  5.412e-05
 601.466  5.444e-05
 601.812  5.498e-05
 602.157  5.550e-05
 602.503  5.568e-05
 602.848  5.539e-05
 603.193  5.519e-05
 603.538  5.534e-05
 603.884  5.559e-05
 604.229  5.537e-05
 604.574  5.536e-05
 604.919  5.531e-05
 605.264  5.551e-05
 605.609  5.526e-05
 605.954  5.601e-05
 606.299  5.607e-05
 606.644  5.633e-05
 606.988  5.548e-05
 607.333  5.517e-05
 607.678  5.539e-05
 608.022  5.583e-05
 608.367  5.563e-05
 608.712  5.546e-05
 609.056  5.512e-05
 609.400  5.546e-05
 609.745  5.506e-05
 610.089  5.518e-05
 610.434  5.490e-05
 610.778  5.490e-05
 611.122  5.487e-05
 611.466  5.501e-05
 611.810  5.507e-05
 612.154  5.454e-05
 612.498  5.440e-05
 612.842  5.455e-05
 613.186  5.477e-05
 613.530  5.483e-05
 613.874  5.442e-05
 614.218  5.419e-05
 614.561  5.375e-05
 614.905  5.378e-05
 615.249  5.363e-05
 615.592  5.395e-05
 615.936  5.393e-05
 616.279  5.442e-05
 616.623  5.395e-05
 616.966  5.385e-05
 617.310  5.330e-05
 617.653  5.309e-05
 617.996  5.289e-05
 618.339  5.280e-05
 618.683  5.297e-05
 619.026  5.301e-05
 619.369  5.263e-05
 619.712  5.254e-05
 620.055  5.244e-05
 620.398  5.261e-05
 620.741  5.251e-05
 621.083  5.233e-05
 621.426  5.221e-05
 621.769  5.231e-05
 622.112  5.254e-05
 622.454  5.259e-05
 622.797  5.240e-05
 623.139  5.232e-05
 623.482  5.224e-05
 623.824  5.274e-05
 624.167  5.258e-05
 624.509  5.281e-05
 624.851  5.261e-05
 625.194  5.287e-05
 625.536  5.329e-05
 625.878  5.292e-05
 626.220  5.301e-05
 626.562  5.265e-05
 626.904  5.310e-05
 627.246  5.298e-05
 627.588  5.302e-05
 627.930  5.290e-05
 628.272  5.308e-05
 628.614  5.345e-05
 628.955  5.377e-05
 629.297  5.360e-05
 629.639  5.365e-05
 629.980  5.410e-05
 630.322  5.457e-05
 630.663  5.476e-05
 631.005  5.425e-05
 631.346  5.454e-05
 631.688  5.451e-05
 632.029  5.503e-05
 632.370  5.547e-05
 632.711  5.577e-05
 633.052  5.554e-05
 633.394  5.532e-05
 633.735  5.542e-05
 634.076  5.602e-05
 634.417  5.592e-05
 634.758  5.583e-05
 635.098  5.559e-05
 635.439  5.583e-05
 635.780  5.545e-05
 636.121  5.514e-05
 636.461  5.485e-05
 636.802  5.547e-05
 637.143  5.571e-05
 637.483  5.566e-05
 637.824  5.525e-05
 638.164  5.496e-05
 638.505  5.491e-05
 638.845  5.479e-05
 639.185  5.446e-05
 639.525  5.410e-05
 639.866  5.395e-05
 640.206  5.404e-05
 640.546  5.356e-05
 640.886  5.280e-05
 641.226  5.222e-05
 641.566  5.205e-05
 641.906  5.153e-05
 642.246  5.133e-05
 642.585  5.082e-05
 642.925  5.060e-05
 643.265  5.002e-05
 643.605  4.941e-05
 643.944  4.918e-05
 644.284  4.878e-05
 644.623  4.843e-05
 644.963  4.758e-05
 645.302  4.714e-05
 645.642  4.675e-05
 645.981  4.681e-05
 646.320  4.613e-05
 646.660  4.559e-05
 646.999  4.486e-05
 647.338  4.505e-05
 647.677  4.486e-05
 648.016  4.497e-05
 648.355  4.445e-05
 648.694  4.441e-05
 649.033  4.450e-05
 649.372  4.399e-05
 649.711  4.408e-05
 650.049  4.353e-05
 650.388  4.376e-05
 650.727  4.347e-05
 651.065  4.359e-05
 651.404  4.352e-05
 651.742  4.343e-05
 652.081  4.339e-05
 652.419  4.347e-05
 652.758  4.355e-05
 653.096  4.366e-05
 653.434  4.347e-05
 653.772  4.347e-05
 654.111  4.293e-05
 654.449  4.268e-05
 654.787  4.239e-05
 655.125  4.235e-05
 655.463  4.226e-05
 655.801  4.237e-05
 656.139  4.179e-05
 656.476  4.180e-05
 656.814  4.107e-05
 657.152  4.135e-05
 657.490  4.080e-05
 657.827  4.021e-05
 658.165  3.927e-05
 658.503  3.847e-05
 658.840  3.827e-05
 659.177  3.803e-05
 659.515  3.735e-05
 659.852  3.696e-05
 660.190  3.625e-05
 660.527  3.567e-05
 660.864  3.425e-05
 661.201  3.365e-05
 661.538  3.309e-05
 661.875  3.270e-05
 662.212  3.124e-05
 662.549  3.047e-05
 662.886  2.968e-05
 663.223  2.947e-05
 663.560  2.847e-05
 663.897  2.779e-05
 664.233  2.705e-05
 664.570  2.676e-05
 664.907  2.664e-05
 665.243  2.582e-05
 665.580  2.510e-05
 665.916  2.378e-05
 666.253  2.311e-05
 666.589  2.262e-05
 666.925  2.226e-05
 667.262  2.184e-05
 667.598  2.137e-05
 667.934  2.095e-05
 668.270  2.071e-05
 668.606  2.025e-05
 668.942  2.019e-05
 669.278  2.012e-05
 669.614  1.961e-05
 669.950  1.864e-05
 670.286  1.829e-05
 670.622  1.817e-05
 670.958  1.797e-05
 671.293  1.722e-05
 671.629  1.699e-05
 671.965  1.684e-05
 672.300  1.705e-05
 672.636  1.714e-05
 672.971  1.721e-05
 673.307  1.711e-05
 673.642  1.701e-05
 673.977  1.732e-05
 674.313  1.684e-05
 674.648  1.672e-05
 674.983  1.666e-05
 675.318  1.723e-05
 675.653  1.774e-05
 675.988  1.744e-05
 676.323  1.723e-05
 676.658  1.697e-05
 676.993  1.759e-05
 677.328  1.802e-05
 677.663  1.819e-05
 677.997  1.809e-05
 678.332  1.845e-05
 678.667  1.852e-05
 679.001  1.879e-05
 679.336  1.905e-05
 679.670  2.028e-05
 680.005  2.092e-05
 680.339  2.144e-05
 680.673  2.183e-05
 681.008  2.251e-05
 681.342  2.349e-05
 681.676  2.429e-05
 682.010  2.535e-05
 682.344  2.637e-05
 682.678  2.776e-05
 683.012  2.884e-05
 683.346  3.020e-05
 683.680  3.129e-05
 684.014  3.339e-05
 684.348  3.555e-05
 684.682  3.773e-05
 685.015  3.984e-05
 685.349  4.255e-05
 685.682  4.513e-05
 686.016  4.794e-05
 686.350  5.057e-05
 686.683  5.441e-05
 687.016  5.780e-05
 687.350  6.221e-05
 687.683  6.590e-05
 688.016  7.056e-05
