Data from ha05_c16L_FLMS070571_001.txt Node
Date: Tue Apr 10 13:17:57 EDT 2018
User: peter
Spectrometer: FLMS07057
Trigger mode: 0
Integration Time (sec): 1.000000E1
Scans to average: 2
Electric dark correction enabled: true
Nonlinearity correction enabled: false
Boxcar width: 0
XAxis mode: Wavelengths
Number of Pixels in Spectrum: 2048
>>>>>Begin Spectral Data<<<<<
 339.015 -1.940e-03
 339.393 -1.940e-03
 339.770  5.354e-04
 340.148  8.570e-04
 340.526  1.473e-03
 340.904  8.228e-05
 341.281  6.615e-05
 341.659 -2.292e-03
 342.036 -2.916e-03
 342.414 -3.662e-03
 342.791 -1.682e-03
 343.169 -1.340e-03
 343.546 -5.164e-04
 343.923 -3.997e-04
 344.301 -1.364e-03
 344.678 -1.210e-03
 345.055 -8.079e-04
 345.432  2.406e-04
 345.810  4.933e-04
 346.187  8.479e-04
 346.564  4.774e-04
 346.941 -3.789e-05
 347.318 -4.820e-04
 347.695 -3.289e-04
 348.071  9.030e-05
 348.448  6.315e-05
 348.825  6.741e-05
 349.202  3.664e-05
 349.578  3.585e-05
 349.955  2.207e-05
 350.332  1.323e-05
 350.708  3.227e-05
 351.085  2.852e-05
 351.461  4.549e-05
 351.838  5.179e-05
 352.214  5.611e-05
 352.591  4.525e-05
 352.967  5.112e-05
 353.343  3.780e-05
 353.719  2.101e-05
 354.096  1.606e-05
 354.472  1.760e-05
 354.848  3.987e-05
 355.224  3.089e-05
 355.600  3.084e-05
 355.976  2.514e-05
 356.352  3.949e-06
 356.728  1.348e-05
 357.104  2.692e-05
 357.479  6.027e-05
 357.855  5.187e-05
 358.231  3.220e-05
 358.607  1.982e-05
 358.982  3.241e-05
 359.358  3.496e-05
 359.734  3.024e-05
 360.109  1.701e-05
 360.484  1.754e-05
 360.860  1.874e-05
 361.235  2.745e-05
 361.611  2.860e-05
 361.986  3.724e-05
 362.361  3.292e-05
 362.736  3.411e-05
 363.112  2.532e-05
 363.487  2.897e-05
 363.862  1.609e-05
 364.237  2.268e-05
 364.612  2.033e-05
 364.987  2.477e-05
 365.362  1.472e-05
 365.737  8.383e-06
 366.112  1.361e-05
 366.486  2.095e-05
 366.861  2.075e-05
 367.236  2.374e-05
 367.610  2.198e-05
 367.985  2.528e-05
 368.360  1.709e-05
 368.734  1.771e-05
 369.109  1.422e-05
 369.483  1.508e-05
 369.858  1.607e-05
 370.232  1.535e-05
 370.606  1.718e-05
 370.981  1.681e-05
 371.355  2.787e-05
 371.729  2.603e-05
 372.103  2.082e-05
 372.477  1.189e-05
 372.851  8.359e-06
 373.225  7.297e-06
 373.599  7.107e-06
 373.973  8.352e-06
 374.347  1.378e-05
 374.721  1.801e-05
 375.095  2.005e-05
 375.469  7.796e-06
 375.842  1.676e-06
 376.216  2.504e-06
 376.590  1.321e-05
 376.963  1.214e-05
 377.337  1.002e-05
 377.710  4.769e-06
 378.084  7.160e-06
 378.457  6.369e-06
 378.831  6.655e-06
 379.204  7.137e-06
 379.577  5.586e-06
 379.951  1.238e-05
 380.324  1.727e-05
 380.697  1.914e-05
 381.070  1.388e-05
 381.443  9.827e-06
 381.816  8.705e-06
 382.189  1.093e-05
 382.562  1.228e-05
 382.935  1.056e-05
 383.308  5.611e-06
 383.681  1.772e-06
 384.054  1.793e-06
 384.426 -8.382e-07
 384.799  2.117e-06
 385.172  9.224e-07
 385.544  4.638e-06
 385.917 -4.843e-07
 386.290  1.032e-06
 386.662 -9.966e-07
 387.034  3.737e-07
 387.407  3.803e-06
 387.779  5.946e-06
 388.152  5.506e-06
 388.524 -2.116e-07
 388.896  5.717e-08
 389.268  3.622e-06
 389.640  5.469e-06
 390.013  4.928e-06
 390.385  6.357e-06
 390.757  6.297e-06
 391.129  9.019e-06
 391.500  6.764e-06
 391.872  7.452e-06
 392.244  6.001e-06
 392.616  3.681e-06
 392.988  4.192e-06
 393.360  2.950e-06
 393.731  3.281e-06
 394.103  4.153e-06
 394.474  4.750e-06
 394.846  5.867e-06
 395.217  6.383e-06
 395.589  7.595e-06
 395.960  7.068e-06
 396.332  5.766e-06
 396.703  5.755e-06
 397.074  5.219e-06
 397.446  4.743e-06
 397.817  3.341e-06
 398.188  4.623e-06
 398.559  4.453e-06
 398.930  6.019e-06
 399.301  6.527e-06
 399.672  5.453e-06
 400.043  3.002e-06
 400.414  2.018e-06
 400.785  2.985e-06
 401.156  4.065e-06
 401.526  4.162e-06
 401.897  3.713e-06
 402.268  4.839e-06
 402.638  4.396e-06
 403.009  3.516e-06
 403.380  1.565e-06
 403.750  1.582e-06
 404.121  4.384e-06
 404.491  3.079e-06
 404.861  2.818e-06
 405.232  1.596e-06
 405.602  4.942e-06
 405.972  5.493e-06
 406.342  4.434e-06
 406.713  3.813e-06
 407.083  3.296e-06
 407.453  4.338e-06
 407.823  2.832e-06
 408.193  3.505e-06
 408.563  3.171e-06
 408.933  3.628e-06
 409.302  3.070e-06
 409.672  2.248e-06
 410.042  1.830e-06
 410.412  1.467e-06
 410.781  2.433e-06
 411.151  3.162e-06
 411.521  3.589e-06
 411.890  2.793e-06
 412.260  1.886e-06
 412.629  1.270e-06
 412.999  2.321e-06
 413.368  2.543e-06
 413.737  2.476e-06
 414.107  2.104e-06
 414.476  2.800e-06
 414.845  2.775e-06
 415.214  2.542e-06
 415.583  2.294e-06
 415.952  3.606e-06
 416.322  4.320e-06
 416.691  3.963e-06
 417.059  2.919e-06
 417.428  1.941e-06
 417.797  1.949e-06
 418.166  1.713e-06
 418.535  2.668e-06
 418.904  3.354e-06
 419.272  4.599e-06
 419.641  4.265e-06
 420.009  3.161e-06
 420.378  1.599e-06
 420.747  1.797e-06
 421.115  3.129e-06
 421.483  3.791e-06
 421.852  2.650e-06
 422.220  1.785e-06
 422.588  1.007e-06
 422.957  3.869e-07
 423.325 -3.395e-07
 423.693  1.135e-06
 424.061  1.604e-06
 424.429  1.936e-06
 424.797  1.730e-06
 425.165  1.779e-06
 425.533  1.236e-06
 425.901  4.991e-07
 426.269  1.039e-06
 426.637  1.625e-06
 427.005  1.623e-06
 427.372  1.872e-06
 427.740  2.158e-06
 428.108  2.951e-06
 428.475  2.446e-06
 428.843  2.342e-06
 429.210  2.030e-06
 429.578  1.343e-06
 429.945  1.386e-06
 430.312  1.021e-06
 430.680  2.071e-06
 431.047  1.863e-06
 431.414  1.520e-06
 431.782  6.251e-07
 432.149  1.545e-07
 432.516  8.857e-07
 432.883  1.324e-06
 433.250  1.723e-06
 433.617  1.293e-06
 433.984  1.176e-06
 434.351  1.626e-06
 434.718  1.391e-06
 435.084  2.103e-06
 435.451  1.136e-06
 435.818  1.317e-06
 436.184  1.172e-06
 436.551  2.533e-06
 436.918  2.421e-06
 437.284  2.118e-06
 437.651  1.767e-06
 438.017  1.462e-06
 438.384  1.245e-06
 438.750  7.945e-07
 439.116  1.412e-06
 439.483  1.688e-06
 439.849  1.402e-06
 440.215  1.058e-06
 440.581  3.298e-07
 440.947  5.880e-07
 441.313  8.710e-07
 441.679  1.571e-06
 442.045  1.025e-06
 442.411  5.954e-07
 442.777  4.439e-07
 443.143  7.206e-07
 443.509  1.060e-06
 443.874  7.101e-07
 444.240  7.661e-07
 444.606  4.589e-07
 444.971  6.559e-07
 445.337  6.918e-07
 445.703  1.255e-06
 446.068  1.301e-06
 446.433  8.036e-07
 446.799 -4.675e-08
 447.164  2.355e-08
 447.530  6.924e-07
 447.895  9.275e-07
 448.260  7.171e-07
 448.625  5.311e-07
 448.990  6.539e-07
 449.355  8.074e-07
 449.720  7.656e-07
 450.085  1.131e-06
 450.450  1.186e-06
 450.815  1.062e-06
 451.180  5.917e-07
 451.545  9.203e-07
 451.910  1.938e-06
 452.275  2.270e-06
 452.639  1.902e-06
 453.004  9.509e-07
 453.369  5.985e-07
 453.733  4.766e-07
 454.098  4.812e-07
 454.462  8.382e-07
 454.826  8.754e-07
 455.191  1.166e-06
 455.555  7.355e-07
 455.919  1.046e-06
 456.284  8.214e-07
 456.648  9.021e-07
 457.012  4.722e-07
 457.376  5.309e-07
 457.740  5.214e-07
 458.104  9.790e-07
 458.468  1.355e-06
 458.832  1.596e-06
 459.196  1.274e-06
 459.560  8.988e-07
 459.924  1.081e-06
 460.288  1.098e-06
 460.651  7.866e-07
 461.015  7.127e-07
 461.379  9.131e-07
 461.742  8.474e-07
 462.106  6.925e-07
 462.469  6.597e-07
 462.833  8.792e-07
 463.196  6.371e-07
 463.559  4.381e-07
 463.923  4.741e-07
 464.286  8.399e-07
 464.649  6.051e-07
 465.012  8.799e-07
 465.376  6.829e-07
 465.739  1.128e-06
 466.102  9.516e-07
 466.465  8.112e-07
 466.828  8.940e-07
 467.191  8.229e-07
 467.553  1.070e-06
 467.916  8.519e-07
 468.279  8.050e-07
 468.642  5.570e-07
 469.004  3.628e-07
 469.367  8.102e-07
 469.730  7.404e-07
 470.092  7.362e-07
 470.455  5.956e-07
 470.817  7.619e-07
 471.180  8.364e-07
 471.542  6.195e-07
 471.904  5.524e-07
 472.267  6.172e-07
 472.629  6.961e-07
 472.991  7.401e-07
 473.353  6.984e-07
 473.715  9.496e-07
 474.078  9.348e-07
 474.440  7.744e-07
 474.802  4.633e-07
 475.163  3.513e-07
 475.525  2.434e-07
 475.887  2.001e-07
 476.249  1.762e-07
 476.611  3.000e-07
 476.972  1.122e-07
 477.334  2.224e-07
 477.696  2.585e-07
 478.057  3.302e-07
 478.419  2.734e-07
 478.780  4.338e-07
 479.142  4.099e-07
 479.503  4.652e-07
 479.865  4.304e-07
 480.226  6.782e-07
 480.587  9.584e-07
 480.948  1.020e-06
 481.310  8.958e-07
 481.671  6.090e-07
 482.032  4.037e-07
 482.393  3.576e-07
 482.754  2.898e-07
 483.115  5.726e-07
 483.476  7.839e-07
 483.837  9.096e-07
 484.197  5.530e-07
 484.558  3.462e-07
 484.919  1.899e-07
 485.280  3.117e-07
 485.640  3.787e-07
 486.001  4.333e-07
 486.361  4.356e-07
 486.722  2.991e-07
 487.082  3.503e-07
 487.443  1.275e-07
 487.803  1.395e-07
 488.163  2.310e-09
 488.524  7.644e-08
 488.884  1.799e-07
 489.244  2.473e-07
 489.604  3.041e-07
 489.964  3.618e-07
 490.324  4.866e-07
 490.684  4.815e-07
 491.044  3.944e-07
 491.404  3.357e-07
 491.764  2.680e-07
 492.124  1.691e-07
 492.484  1.288e-07
 492.843  1.584e-07
 493.203  1.049e-07
 493.563  9.682e-08
 493.922  1.654e-07
 494.282  1.588e-07
 494.642  1.612e-07
 495.001  1.618e-07
 495.360  2.798e-07
 495.720  2.672e-07
 496.079  2.955e-07
 496.438  3.620e-07
 496.798  4.140e-07
 497.157  3.687e-07
 497.516  3.898e-07
 497.875  2.837e-07
 498.234  4.249e-07
 498.593  3.252e-07
 498.952  3.639e-07
 499.311  3.265e-07
 499.670  2.725e-07
 500.029  2.211e-07
 500.388  2.062e-07
 500.746  3.642e-07
 501.105  4.361e-07
 501.464  4.390e-07
 501.822  3.400e-07
 502.181  3.572e-07
 502.539  3.529e-07
 502.898  4.015e-07
 503.256  3.474e-07
 503.615  2.395e-07
 503.973  1.728e-07
 504.331  2.823e-07
 504.690  3.986e-07
 505.048  5.015e-07
 505.406  3.725e-07
 505.764  2.449e-07
 506.122  2.055e-07
 506.480  1.732e-07
 506.838  2.773e-07
 507.196  2.801e-07
 507.554  2.692e-07
 507.912  2.732e-07
 508.270  3.532e-07
 508.627  4.473e-07
 508.985  3.545e-07
 509.343  1.958e-07
 509.700  2.331e-07
 510.058  3.085e-07
 510.415  2.994e-07
 510.773  2.148e-07
 511.130  2.547e-07
 511.488  3.570e-07
 511.845  4.349e-07
 512.202  5.175e-07
 512.560  5.077e-07
 512.917  4.974e-07
 513.274  3.804e-07
 513.631  3.442e-07
 513.988  3.330e-07
 514.345  3.831e-07
 514.702  4.730e-07
 515.059  5.059e-07
 515.416  4.618e-07
 515.773  3.579e-07
 516.130  2.005e-07
 516.486  2.545e-07
 516.843  2.728e-07
 517.200  4.973e-07
 517.556  4.166e-07
 517.913  5.020e-07
 518.269  3.709e-07
 518.626  4.958e-07
 518.982  4.086e-07
 519.339  4.530e-07
 519.695  3.603e-07
 520.051  3.030e-07
 520.408  2.568e-07
 520.764  2.150e-07
 521.120  4.136e-07
 521.476  4.562e-07
 521.832  5.462e-07
 522.188  4.328e-07
 522.544  4.285e-07
 522.900  4.255e-07
 523.256  4.467e-07
 523.612  4.312e-07
 523.968  4.625e-07
 524.323  4.437e-07
 524.679  5.393e-07
 525.035  5.453e-07
 525.390  5.534e-07
 525.746  5.775e-07
 526.102  5.352e-07
 526.457  5.442e-07
 526.812  4.494e-07
 527.168  4.199e-07
 527.523  4.640e-07
 527.878  4.973e-07
 528.234  5.919e-07
 528.589  5.919e-07
 528.944  5.809e-07
 529.299  5.948e-07
 529.654  5.670e-07
 530.009  5.453e-07
 530.364  4.817e-07
 530.719  4.779e-07
 531.074  5.367e-07
 531.429  5.407e-07
 531.784  5.907e-07
 532.138  5.609e-07
 532.493  5.887e-07
 532.848  6.019e-07
 533.202  6.370e-07
 533.557  6.575e-07
 533.911  6.257e-07
 534.266  6.557e-07
 534.620  5.846e-07
 534.975  5.450e-07
 535.329  4.545e-07
 535.683  5.508e-07
 536.038  6.048e-07
 536.392  5.940e-07
 536.746  5.209e-07
 537.100  5.721e-07
 537.454  6.642e-07
 537.808  6.563e-07
 538.162  6.413e-07
 538.516  5.951e-07
 538.870  6.793e-07
 539.224  7.077e-07
 539.577  7.530e-07
 539.931  7.535e-07
 540.285  6.757e-07
 540.639  7.340e-07
 540.992  7.019e-07
 541.346  7.760e-07
 541.699  7.310e-07
 542.053  6.999e-07
 542.406  6.711e-07
 542.759  6.591e-07
 543.113  6.845e-07
 543.466  7.087e-07
 543.819  7.311e-07
 544.172  7.980e-07
 544.526  7.790e-07
 544.879  7.374e-07
 545.232  7.364e-07
 545.585  8.017e-07
 545.938  8.763e-07
 546.291  8.375e-07
 546.643  7.905e-07
 546.996  7.247e-07
 547.349  8.017e-07
 547.702  8.983e-07
 548.054  9.636e-07
 548.407  9.867e-07
 548.760  1.034e-06
 549.112  1.077e-06
 549.465  1.011e-06
 549.817  9.322e-07
 550.169  8.631e-07
 550.522  9.055e-07
 550.874  8.761e-07
 551.226  9.458e-07
 551.579  9.654e-07
 551.931  1.035e-06
 552.283  1.000e-06
 552.635  9.946e-07
 552.987  1.005e-06
 553.339  1.098e-06
 553.691  1.211e-06
 554.043  1.239e-06
 554.395  1.244e-06
 554.746  1.250e-06
 555.098  1.268e-06
 555.450  1.316e-06
 555.802  1.238e-06
 556.153  1.280e-06
 556.505  1.333e-06
 556.856  1.397e-06
 557.208  1.441e-06
 557.559  1.402e-06
 557.911  1.440e-06
 558.262  1.414e-06
 558.613  1.460e-06
 558.964  1.488e-06
 559.316  1.548e-06
 559.667  1.557e-06
 560.018  1.566e-06
 560.369  1.598e-06
 560.720  1.615e-06
 561.071  1.641e-06
 561.422  1.673e-06
 561.773  1.693e-06
 562.124  1.760e-06
 562.474  1.702e-06
 562.825  1.779e-06
 563.176  1.714e-06
 563.526  1.794e-06
 563.877  1.816e-06
 564.228  1.928e-06
 564.578  2.004e-06
 564.928  2.054e-06
 565.279  2.035e-06
 565.629  2.090e-06
 565.980  2.068e-06
 566.330  2.153e-06
 566.680  2.147e-06
 567.030  2.300e-06
 567.380  2.251e-06
 567.730  2.278e-06
 568.080  2.181e-06
 568.430  2.307e-06
 568.780  2.365e-06
 569.130  2.518e-06
 569.480  2.490e-06
 569.830  2.471e-06
 570.180  2.406e-06
 570.529  2.493e-06
 570.879  2.560e-06
 571.229  2.650e-06
 571.578  2.675e-06
 571.928  2.718e-06
 572.277  2.733e-06
 572.627  2.736e-06
 572.976  2.730e-06
 573.325  2.822e-06
 573.675  2.941e-06
 574.024  2.956e-06
 574.373  2.980e-06
 574.722  3.000e-06
 575.071  3.116e-06
 575.420  3.052e-06
 575.769  3.049e-06
 576.118  3.125e-06
 576.467  3.213e-06
 576.816  3.340e-06
 577.165  3.361e-06
 577.514  3.429e-06
 577.863  3.386e-06
 578.211  3.303e-06
 578.560  3.329e-06
 578.908  3.470e-06
 579.257  3.549e-06
 579.606  3.547e-06
 579.954  3.443e-06
 580.302  3.537e-06
 580.651  3.620e-06
 580.999  3.760e-06
 581.347  3.788e-06
 581.696  3.889e-06
 582.044  3.931e-06
 582.392  3.954e-06
 582.740  3.847e-06
 583.088  3.861e-06
 583.436  3.955e-06
 583.784  4.141e-06
 584.132  4.204e-06
 584.480  4.222e-06
 584.827  4.288e-06
 585.175  4.267e-06
 585.523  4.307e-06
 585.870  4.253e-06
 586.218  4.369e-06
 586.566  4.395e-06
 586.913  4.475e-06
 587.261  4.567e-06
 587.608  4.633e-06
 587.955  4.674e-06
 588.303  4.620e-06
 588.650  4.655e-06
 588.997  4.703e-06
 589.344  4.728e-06
 589.692  4.824e-06
 590.039  4.909e-06
 590.386  5.016e-06
 590.733  5.013e-06
 591.080  5.067e-06
 591.427  5.117e-06
 591.773  5.234e-06
 592.120  5.213e-06
 592.467  5.242e-06
 592.814  5.334e-06
 593.160  5.415e-06
 593.507  5.455e-06
 593.854  5.481e-06
 594.200  5.590e-06
 594.547  5.657e-06
 594.893  5.639e-06
 595.239  5.607e-06
 595.586  5.727e-06
 595.932  5.767e-06
 596.278  5.891e-06
 596.624  5.901e-06
 596.971  6.048e-06
 597.317  6.103e-06
 597.663  6.097e-06
 598.009  6.094e-06
 598.355  6.102e-06
 598.701  6.192e-06
 599.046  6.224e-06
 599.392  6.310e-06
 599.738  6.429e-06
 600.084  6.567e-06
 600.429  6.607e-06
 600.775  6.611e-06
 601.121  6.622e-06
 601.466  6.675e-06
 601.812  6.698e-06
 602.157  6.643e-06
 602.503  6.697e-06
 602.848  6.720e-06
 603.193  6.878e-06
 603.538  6.892e-06
 603.884  6.979e-06
 604.229  6.956e-06
 604.574  6.976e-06
 604.919  7.011e-06
 605.264  7.050e-06
 605.609  7.116e-06
 605.954  7.149e-06
 606.299  7.226e-06
 606.644  7.304e-06
 606.988  7.299e-06
 607.333  7.314e-06
 607.678  7.346e-06
 608.022  7.377e-06
 608.367  7.371e-06
 608.712  7.411e-06
 609.056  7.478e-06
 609.400  7.561e-06
 609.745  7.538e-06
 610.089  7.507e-06
 610.434  7.495e-06
 610.778  7.533e-06
 611.122  7.640e-06
 611.466  7.656e-06
 611.810  7.616e-06
 612.154  7.596e-06
 612.498  7.636e-06
 612.842  7.635e-06
 613.186  7.718e-06
 613.530  7.764e-06
 613.874  7.790e-06
 614.218  7.712e-06
 614.561  7.741e-06
 614.905  7.843e-06
 615.249  7.884e-06
 615.592  7.903e-06
 615.936  7.882e-06
 616.279  7.943e-06
 616.623  7.963e-06
 616.966  7.928e-06
 617.310  8.024e-06
 617.653  7.989e-06
 617.996  8.035e-06
 618.339  7.932e-06
 618.683  7.953e-06
 619.026  8.037e-06
 619.369  8.083e-06
 619.712  8.268e-06
 620.055  8.277e-06
 620.398  8.262e-06
 620.741  8.135e-06
 621.083  8.118e-06
 621.426  8.204e-06
 621.769  8.271e-06
 622.112  8.292e-06
 622.454  8.296e-06
 622.797  8.298e-06
 623.139  8.367e-06
 623.482  8.442e-06
 623.824  8.500e-06
 624.167  8.532e-06
 624.509  8.486e-06
 624.851  8.541e-06
 625.194  8.559e-06
 625.536  8.663e-06
 625.878  8.624e-06
 626.220  8.705e-06
 626.562  8.747e-06
 626.904  8.806e-06
 627.246  8.874e-06
 627.588  8.886e-06
 627.930  8.815e-06
 628.272  8.770e-06
 628.614  8.837e-06
 628.955  9.001e-06
 629.297  9.072e-06
 629.639  9.055e-06
 629.980  9.042e-06
 630.322  9.049e-06
 630.663  9.182e-06
 631.005  9.276e-06
 631.346  9.257e-06
 631.688  9.209e-06
 632.029  9.256e-06
 632.370  9.401e-06
 632.711  9.550e-06
 633.052  9.473e-06
 633.394  9.506e-06
 633.735  9.330e-06
 634.076  9.395e-06
 634.417  9.433e-06
 634.758  9.648e-06
 635.098  9.784e-06
 635.439  9.734e-06
 635.780  9.684e-06
 636.121  9.685e-06
 636.461  9.694e-06
 636.802  9.766e-06
 637.143  9.760e-06
 637.483  9.802e-06
 637.824  9.748e-06
 638.164  9.726e-06
 638.505  9.708e-06
 638.845  9.701e-06
 639.185  9.680e-06
 639.525  9.768e-06
 639.866  9.753e-06
 640.206  9.774e-06
 640.546  9.736e-06
 640.886  9.816e-06
 641.226  9.847e-06
 641.566  9.848e-06
 641.906  9.813e-06
 642.246  9.814e-06
 642.585  9.750e-06
 642.925  9.579e-06
 643.265  9.461e-06
 643.605  9.462e-06
 643.944  9.587e-06
 644.284  9.670e-06
 644.623  9.515e-06
 644.963  9.354e-06
 645.302  9.225e-06
 645.642  9.206e-06
 645.981  9.251e-06
 646.320  9.219e-06
 646.660  9.175e-06
 646.999  9.150e-06
 647.338  9.110e-06
 647.677  9.134e-06
 648.016  9.115e-06
 648.355  9.087e-06
 648.694  9.086e-06
 649.033  8.933e-06
 649.372  8.895e-06
 649.711  8.934e-06
 650.049  9.051e-06
 650.388  9.096e-06
 650.727  9.093e-06
 651.065  9.009e-06
 651.404  8.944e-06
 651.742  8.897e-06
 652.081  8.906e-06
 652.419  8.820e-06
 652.758  8.776e-06
 653.096  8.782e-06
 653.434  8.889e-06
 653.772  8.866e-06
 654.111  8.832e-06
 654.449  8.802e-06
 654.787  8.846e-06
 655.125  8.769e-06
 655.463  8.678e-06
 655.801  8.577e-06
 656.139  8.632e-06
 656.476  8.634e-06
 656.814  8.633e-06
 657.152  8.501e-06
 657.490  8.459e-06
 657.827  8.433e-06
 658.165  8.480e-06
 658.503  8.346e-06
 658.840  8.147e-06
 659.177  7.915e-06
 659.515  7.792e-06
 659.852  7.789e-06
 660.190  7.781e-06
 660.527  7.883e-06
 660.864  7.662e-06
 661.201  7.529e-06
 661.538  7.353e-06
 661.875  7.298e-06
 662.212  7.224e-06
 662.549  6.996e-06
 662.886  6.877e-06
 663.223  6.634e-06
 663.560  6.541e-06
 663.897  6.515e-06
 664.233  6.475e-06
 664.570  6.418e-06
 664.907  6.243e-06
 665.243  6.268e-06
 665.580  6.181e-06
 665.916  6.128e-06
 666.253  5.947e-06
 666.589  5.845e-06
 666.925  5.812e-06
 667.262  5.771e-06
 667.598  5.702e-06
 667.934  5.620e-06
 668.270  5.537e-06
 668.606  5.390e-06
 668.942  5.318e-06
 669.278  5.311e-06
 669.614  5.460e-06
 669.950  5.364e-06
 670.286  5.286e-06
 670.622  5.106e-06
 670.958  5.116e-06
 671.293  5.168e-06
 671.629  5.191e-06
 671.965  5.120e-06
 672.300  4.997e-06
 672.636  5.026e-06
 672.971  5.049e-06
 673.307  5.000e-06
 673.642  4.990e-06
 673.977  5.024e-06
 674.313  5.136e-06
 674.648  5.233e-06
 674.983  5.266e-06
 675.318  5.234e-06
 675.653  5.122e-06
 675.988  5.183e-06
 676.323  5.348e-06
 676.658  5.528e-06
 676.993  5.617e-06
 677.328  5.574e-06
 677.663  5.600e-06
 677.997  5.604e-06
 678.332  5.725e-06
 678.667  5.807e-06
 679.001  5.960e-06
 679.336  6.155e-06
 679.670  6.277e-06
 680.005  6.422e-06
 680.339  6.521e-06
 680.673  6.732e-06
 681.008  6.926e-06
 681.342  7.162e-06
 681.676  7.272e-06
 682.010  7.389e-06
 682.344  7.626e-06
 682.678  7.857e-06
 683.012  8.010e-06
 683.346  8.144e-06
 683.680  8.574e-06
 684.014  8.994e-06
 684.348  9.538e-06
 684.682  9.906e-06
 685.015  1.032e-05
 685.349  1.063e-05
 685.682  1.093e-05
 686.016  1.122e-05
 686.350  1.163e-05
 686.683  1.226e-05
 687.016  1.287e-05
 687.350  1.335e-05
 687.683  1.389e-05
 688.016  1.450e-05
