Data from ha06_a68L_FLMS070571_001.txt Node
Date: Tue Apr 10 17:18:17 EDT 2018
User: peter
Spectrometer: FLMS07057
Trigger mode: 0
Integration Time (sec): 4.000000E-1
Scans to average: 8
Electric dark correction enabled: true
Nonlinearity correction enabled: false
Boxcar width: 0
XAxis mode: Wavelengths
Number of Pixels in Spectrum: 2048
>>>>>Begin Spectral Data<<<<<
 339.015  2.352e-02
 339.393  2.352e-02
 339.770  1.849e-02
 340.148  9.991e-03
 340.526 -8.560e-05
 340.904  3.811e-03
 341.281  4.701e-03
 341.659  5.830e-03
 342.036  1.381e-03
 342.414  1.951e-04
 342.791 -1.206e-02
 343.169 -5.801e-02
 343.546 -6.176e-02
 343.923 -6.524e-02
 344.301 -2.428e-02
 344.678 -2.157e-02
 345.055 -7.910e-03
 345.432 -9.395e-03
 345.810 -1.466e-02
 346.187 -1.070e-02
 346.564 -6.725e-03
 346.941  8.821e-04
 347.318  1.999e-03
 347.695  3.164e-03
 348.071  3.764e-03
 348.448  2.341e-03
 348.825  1.969e-03
 349.202  1.602e-03
 349.578  1.986e-03
 349.955  1.933e-03
 350.332  2.017e-03
 350.708  1.468e-03
 351.085  1.407e-03
 351.461  1.252e-03
 351.838  1.736e-03
 352.214  1.757e-03
 352.591  1.688e-03
 352.967  1.413e-03
 353.343  1.391e-03
 353.719  1.474e-03
 354.096  1.626e-03
 354.472  1.758e-03
 354.848  1.789e-03
 355.224  1.566e-03
 355.600  1.597e-03
 355.976  1.684e-03
 356.352  1.758e-03
 356.728  1.733e-03
 357.104  1.656e-03
 357.479  1.649e-03
 357.855  1.468e-03
 358.231  1.326e-03
 358.607  1.253e-03
 358.982  1.251e-03
 359.358  1.259e-03
 359.734  1.242e-03
 360.109  1.231e-03
 360.484  1.203e-03
 360.860  1.143e-03
 361.235  1.146e-03
 361.611  1.140e-03
 361.986  1.122e-03
 362.361  9.824e-04
 362.736  9.191e-04
 363.112  8.551e-04
 363.487  7.890e-04
 363.862  7.487e-04
 364.237  9.236e-04
 364.612  1.066e-03
 364.987  1.110e-03
 365.362  9.788e-04
 365.737  9.358e-04
 366.112  9.067e-04
 366.486  9.260e-04
 366.861  9.462e-04
 367.236  9.007e-04
 367.610  8.793e-04
 367.985  9.076e-04
 368.360  9.257e-04
 368.734  8.353e-04
 369.109  7.682e-04
 369.483  6.779e-04
 369.858  6.491e-04
 370.232  6.549e-04
 370.606  6.899e-04
 370.981  6.987e-04
 371.355  7.430e-04
 371.729  7.328e-04
 372.103  7.470e-04
 372.477  7.125e-04
 372.851  7.376e-04
 373.225  6.727e-04
 373.599  6.087e-04
 373.973  6.181e-04
 374.347  6.420e-04
 374.721  6.385e-04
 375.095  5.681e-04
 375.469  5.653e-04
 375.842  5.509e-04
 376.216  5.399e-04
 376.590  5.460e-04
 376.963  5.718e-04
 377.337  5.967e-04
 377.710  5.602e-04
 378.084  4.987e-04
 378.457  4.355e-04
 378.831  4.567e-04
 379.204  4.697e-04
 379.577  5.316e-04
 379.951  5.331e-04
 380.324  5.206e-04
 380.697  5.154e-04
 381.070  5.223e-04
 381.443  5.141e-04
 381.816  4.819e-04
 382.189  4.278e-04
 382.562  3.909e-04
 382.935  4.066e-04
 383.308  4.035e-04
 383.681  4.542e-04
 384.054  4.198e-04
 384.426  4.323e-04
 384.799  3.941e-04
 385.172  3.855e-04
 385.544  3.396e-04
 385.917  3.413e-04
 386.290  3.707e-04
 386.662  3.716e-04
 387.034  4.036e-04
 387.407  3.588e-04
 387.779  3.919e-04
 388.152  3.312e-04
 388.524  3.326e-04
 388.896  3.484e-04
 389.268  3.513e-04
 389.640  3.712e-04
 390.013  3.569e-04
 390.385  3.352e-04
 390.757  2.895e-04
 391.129  2.625e-04
 391.500  2.745e-04
 391.872  3.022e-04
 392.244  3.275e-04
 392.616  3.329e-04
 392.988  3.105e-04
 393.360  2.981e-04
 393.731  2.843e-04
 394.103  2.993e-04
 394.474  3.001e-04
 394.846  3.039e-04
 395.217  2.770e-04
 395.589  2.522e-04
 395.960  2.813e-04
 396.332  3.009e-04
 396.703  2.911e-04
 397.074  2.680e-04
 397.446  2.564e-04
 397.817  2.701e-04
 398.188  2.650e-04
 398.559  2.687e-04
 398.930  2.393e-04
 399.301  2.258e-04
 399.672  2.318e-04
 400.043  2.501e-04
 400.414  2.707e-04
 400.785  2.592e-04
 401.156  2.690e-04
 401.526  2.706e-04
 401.897  2.523e-04
 402.268  2.400e-04
 402.638  2.066e-04
 403.009  2.190e-04
 403.380  2.065e-04
 403.750  2.150e-04
 404.121  1.871e-04
 404.491  1.940e-04
 404.861  1.837e-04
 405.232  2.193e-04
 405.602  2.189e-04
 405.972  2.292e-04
 406.342  2.091e-04
 406.713  2.075e-04
 407.083  2.182e-04
 407.453  2.320e-04
 407.823  2.359e-04
 408.193  2.293e-04
 408.563  2.115e-04
 408.933  1.934e-04
 409.302  1.902e-04
 409.672  1.717e-04
 410.042  1.760e-04
 410.412  1.595e-04
 410.781  1.769e-04
 411.151  1.837e-04
 411.521  1.860e-04
 411.890  1.904e-04
 412.260  1.878e-04
 412.629  1.950e-04
 412.999  1.886e-04
 413.368  1.983e-04
 413.737  1.914e-04
 414.107  1.895e-04
 414.476  1.809e-04
 414.845  1.909e-04
 415.214  1.987e-04
 415.583  1.999e-04
 415.952  1.824e-04
 416.322  1.833e-04
 416.691  1.714e-04
 417.059  1.790e-04
 417.428  1.710e-04
 417.797  1.741e-04
 418.166  1.700e-04
 418.535  1.699e-04
 418.904  1.751e-04
 419.272  1.822e-04
 419.641  1.828e-04
 420.009  1.822e-04
 420.378  1.771e-04
 420.747  1.751e-04
 421.115  1.799e-04
 421.483  1.752e-04
 421.852  1.696e-04
 422.220  1.559e-04
 422.588  1.523e-04
 422.957  1.461e-04
 423.325  1.472e-04
 423.693  1.447e-04
 424.061  1.550e-04
 424.429  1.554e-04
 424.797  1.612e-04
 425.165  1.635e-04
 425.533  1.625e-04
 425.901  1.607e-04
 426.269  1.550e-04
 426.637  1.518e-04
 427.005  1.439e-04
 427.372  1.480e-04
 427.740  1.422e-04
 428.108  1.508e-04
 428.475  1.460e-04
 428.843  1.498e-04
 429.210  1.463e-04
 429.578  1.431e-04
 429.945  1.484e-04
 430.312  1.465e-04
 430.680  1.564e-04
 431.047  1.501e-04
 431.414  1.600e-04
 431.782  1.512e-04
 432.149  1.588e-04
 432.516  1.484e-04
 432.883  1.418e-04
 433.250  1.330e-04
 433.617  1.328e-04
 433.984  1.392e-04
 434.351  1.311e-04
 434.718  1.306e-04
 435.084  1.249e-04
 435.451  1.362e-04
 435.818  1.414e-04
 436.184  1.400e-04
 436.551  1.403e-04
 436.918  1.332e-04
 437.284  1.338e-04
 437.651  1.297e-04
 438.017  1.354e-04
 438.384  1.339e-04
 438.750  1.316e-04
 439.116  1.225e-04
 439.483  1.280e-04
 439.849  1.237e-04
 440.215  1.344e-04
 440.581  1.333e-04
 440.947  1.377e-04
 441.313  1.310e-04
 441.679  1.299e-04
 442.045  1.307e-04
 442.411  1.290e-04
 442.777  1.273e-04
 443.143  1.265e-04
 443.509  1.283e-04
 443.874  1.270e-04
 444.240  1.303e-04
 444.606  1.298e-04
 444.971  1.377e-04
 445.337  1.318e-04
 445.703  1.310e-04
 446.068  1.246e-04
 446.433  1.251e-04
 446.799  1.277e-04
 447.164  1.353e-04
 447.530  1.447e-04
 447.895  1.442e-04
 448.260  1.328e-04
 448.625  1.268e-04
 448.990  1.303e-04
 449.355  1.333e-04
 449.720  1.286e-04
 450.085  1.255e-04
 450.450  1.321e-04
 450.815  1.381e-04
 451.180  1.355e-04
 451.545  1.331e-04
 451.910  1.317e-04
 452.275  1.327e-04
 452.639  1.311e-04
 453.004  1.306e-04
 453.369  1.380e-04
 453.733  1.396e-04
 454.098  1.413e-04
 454.462  1.382e-04
 454.826  1.373e-04
 455.191  1.356e-04
 455.555  1.306e-04
 455.919  1.274e-04
 456.284  1.306e-04
 456.648  1.342e-04
 457.012  1.362e-04
 457.376  1.345e-04
 457.740  1.306e-04
 458.104  1.390e-04
 458.468  1.367e-04
 458.832  1.443e-04
 459.196  1.345e-04
 459.560  1.410e-04
 459.924  1.370e-04
 460.288  1.410e-04
 460.651  1.357e-04
 461.015  1.382e-04
 461.379  1.421e-04
 461.742  1.415e-04
 462.106  1.403e-04
 462.469  1.396e-04
 462.833  1.433e-04
 463.196  1.416e-04
 463.559  1.417e-04
 463.923  1.370e-04
 464.286  1.367e-04
 464.649  1.324e-04
 465.012  1.371e-04
 465.376  1.356e-04
 465.739  1.329e-04
 466.102  1.318e-04
 466.465  1.334e-04
 466.828  1.400e-04
 467.191  1.435e-04
 467.553  1.449e-04
 467.916  1.432e-04
 468.279  1.387e-04
 468.642  1.398e-04
 469.004  1.400e-04
 469.367  1.435e-04
 469.730  1.435e-04
 470.092  1.423e-04
 470.455  1.375e-04
 470.817  1.386e-04
 471.180  1.412e-04
 471.542  1.402e-04
 471.904  1.374e-04
 472.267  1.304e-04
 472.629  1.317e-04
 472.991  1.282e-04
 473.353  1.325e-04
 473.715  1.333e-04
 474.078  1.362e-04
 474.440  1.348e-04
 474.802  1.347e-04
 475.163  1.317e-04
 475.525  1.319e-04
 475.887  1.287e-04
 476.249  1.303e-04
 476.611  1.280e-04
 476.972  1.309e-04
 477.334  1.285e-04
 477.696  1.316e-04
 478.057  1.316e-04
 478.419  1.359e-04
 478.780  1.365e-04
 479.142  1.341e-04
 479.503  1.333e-04
 479.865  1.338e-04
 480.226  1.352e-04
 480.587  1.341e-04
 480.948  1.339e-04
 481.310  1.329e-04
 481.671  1.328e-04
 482.032  1.310e-04
 482.393  1.335e-04
 482.754  1.340e-04
 483.115  1.336e-04
 483.476  1.321e-04
 483.837  1.325e-04
 484.197  1.322e-04
 484.558  1.318e-04
 484.919  1.335e-04
 485.280  1.347e-04
 485.640  1.362e-04
 486.001  1.356e-04
 486.361  1.362e-04
 486.722  1.375e-04
 487.082  1.376e-04
 487.443  1.373e-04
 487.803  1.398e-04
 488.163  1.401e-04
 488.524  1.403e-04
 488.884  1.349e-04
 489.244  1.356e-04
 489.604  1.356e-04
 489.964  1.391e-04
 490.324  1.388e-04
 490.684  1.398e-04
 491.044  1.387e-04
 491.404  1.387e-04
 491.764  1.394e-04
 492.124  1.411e-04
 492.484  1.428e-04
 492.843  1.430e-04
 493.203  1.432e-04
 493.563  1.424e-04
 493.922  1.419e-04
 494.282  1.427e-04
 494.642  1.436e-04
 495.001  1.450e-04
 495.360  1.444e-04
 495.720  1.442e-04
 496.079  1.448e-04
 496.438  1.475e-04
 496.798  1.505e-04
 497.157  1.530e-04
 497.516  1.531e-04
 497.875  1.509e-04
 498.234  1.511e-04
 498.593  1.509e-04
 498.952  1.541e-04
 499.311  1.546e-04
 499.670  1.559e-04
 500.029  1.563e-04
 500.388  1.555e-04
 500.746  1.553e-04
 501.105  1.547e-04
 501.464  1.574e-04
 501.822  1.593e-04
 502.181  1.620e-04
 502.539  1.623e-04
 502.898  1.625e-04
 503.256  1.619e-04
 503.615  1.635e-04
 503.973  1.639e-04
 504.331  1.670e-04
 504.690  1.672e-04
 505.048  1.682e-04
 505.406  1.676e-04
 505.764  1.679e-04
 506.122  1.701e-04
 506.480  1.722e-04
 506.838  1.739e-04
 507.196  1.754e-04
 507.554  1.756e-04
 507.912  1.762e-04
 508.270  1.761e-04
 508.627  1.759e-04
 508.985  1.772e-04
 509.343  1.788e-04
 509.700  1.798e-04
 510.058  1.809e-04
 510.415  1.817e-04
 510.773  1.831e-04
 511.130  1.833e-04
 511.488  1.846e-04
 511.845  1.869e-04
 512.202  1.883e-04
 512.560  1.897e-04
 512.917  1.889e-04
 513.274  1.891e-04
 513.631  1.896e-04
 513.988  1.915e-04
 514.345  1.938e-04
 514.702  1.931e-04
 515.059  1.946e-04
 515.416  1.944e-04
 515.773  1.966e-04
 516.130  1.964e-04
 516.486  1.985e-04
 516.843  1.995e-04
 517.200  2.018e-04
 517.556  2.025e-04
 517.913  2.019e-04
 518.269  2.035e-04
 518.626  2.046e-04
 518.982  2.090e-04
 519.339  2.090e-04
 519.695  2.109e-04
 520.051  2.099e-04
 520.408  2.107e-04
 520.764  2.108e-04
 521.120  2.122e-04
 521.476  2.130e-04
 521.832  2.143e-04
 522.188  2.154e-04
 522.544  2.182e-04
 522.900  2.186e-04
 523.256  2.200e-04
 523.612  2.198e-04
 523.968  2.220e-04
 524.323  2.229e-04
 524.679  2.234e-04
 525.035  2.238e-04
 525.390  2.253e-04
 525.746  2.263e-04
 526.102  2.281e-04
 526.457  2.285e-04
 526.812  2.300e-04
 527.168  2.308e-04
 527.523  2.321e-04
 527.878  2.337e-04
 528.234  2.350e-04
 528.589  2.361e-04
 528.944  2.365e-04
 529.299  2.376e-04
 529.654  2.393e-04
 530.009  2.414e-04
 530.364  2.423e-04
 530.719  2.431e-04
 531.074  2.447e-04
 531.429  2.448e-04
 531.784  2.459e-04
 532.138  2.460e-04
 532.493  2.487e-04
 532.848  2.489e-04
 533.202  2.500e-04
 533.557  2.517e-04
 533.911  2.553e-04
 534.266  2.571e-04
 534.620  2.580e-04
 534.975  2.583e-04
 535.329  2.596e-04
 535.683  2.622e-04
 536.038  2.641e-04
 536.392  2.666e-04
 536.746  2.670e-04
 537.100  2.670e-04
 537.454  2.674e-04
 537.808  2.682e-04
 538.162  2.701e-04
 538.516  2.729e-04
 538.870  2.754e-04
 539.224  2.771e-04
 539.577  2.777e-04
 539.931  2.791e-04
 540.285  2.801e-04
 540.639  2.825e-04
 540.992  2.837e-04
 541.346  2.877e-04
 541.699  2.889e-04
 542.053  2.918e-04
 542.406  2.932e-04
 542.759  2.957e-04
 543.113  2.969e-04
 543.466  2.985e-04
 543.819  3.010e-04
 544.172  3.034e-04
 544.526  3.059e-04
 544.879  3.074e-04
 545.232  3.112e-04
 545.585  3.130e-04
 545.938  3.152e-04
 546.291  3.156e-04
 546.643  3.193e-04
 546.996  3.215e-04
 547.349  3.238e-04
 547.702  3.268e-04
 548.054  3.309e-04
 548.407  3.350e-04
 548.760  3.366e-04
 549.112  3.387e-04
 549.465  3.409e-04
 549.817  3.442e-04
 550.169  3.484e-04
 550.522  3.526e-04
 550.874  3.560e-04
 551.226  3.570e-04
 551.579  3.592e-04
 551.931  3.621e-04
 552.283  3.672e-04
 552.635  3.703e-04
 552.987  3.737e-04
 553.339  3.769e-04
 553.691  3.810e-04
 554.043  3.852e-04
 554.395  3.884e-04
 554.746  3.920e-04
 555.098  3.944e-04
 555.450  3.989e-04
 555.802  4.038e-04
 556.153  4.084e-04
 556.505  4.118e-04
 556.856  4.154e-04
 557.208  4.196e-04
 557.559  4.251e-04
 557.911  4.280e-04
 558.262  4.325e-04
 558.613  4.375e-04
 558.964  4.419e-04
 559.316  4.471e-04
 559.667  4.501e-04
 560.018  4.559e-04
 560.369  4.585e-04
 560.720  4.622e-04
 561.071  4.662e-04
 561.422  4.725e-04
 561.773  4.786e-04
 562.124  4.841e-04
 562.474  4.877e-04
 562.825  4.928e-04
 563.176  4.974e-04
 563.526  5.028e-04
 563.877  5.067e-04
 564.228  5.115e-04
 564.578  5.164e-04
 564.928  5.219e-04
 565.279  5.283e-04
 565.629  5.333e-04
 565.980  5.388e-04
 566.330  5.444e-04
 566.680  5.504e-04
 567.030  5.566e-04
 567.380  5.610e-04
 567.730  5.679e-04
 568.080  5.751e-04
 568.430  5.814e-04
 568.780  5.877e-04
 569.130  5.920e-04
 569.480  5.994e-04
 569.830  6.055e-04
 570.180  6.120e-04
 570.529  6.173e-04
 570.879  6.239e-04
 571.229  6.309e-04
 571.578  6.383e-04
 571.928  6.431e-04
 572.277  6.487e-04
 572.627  6.526e-04
 572.976  6.601e-04
 573.325  6.658e-04
 573.675  6.740e-04
 574.024  6.804e-04
 574.373  6.881e-04
 574.722  6.954e-04
 575.071  7.011e-04
 575.420  7.082e-04
 575.769  7.143e-04
 576.118  7.214e-04
 576.467  7.282e-04
 576.816  7.367e-04
 577.165  7.464e-04
 577.514  7.539e-04
 577.863  7.625e-04
 578.211  7.678e-04
 578.560  7.747e-04
 578.908  7.802e-04
 579.257  7.899e-04
 579.606  7.994e-04
 579.954  8.060e-04
 580.302  8.120e-04
 580.651  8.193e-04
 580.999  8.272e-04
 581.347  8.353e-04
 581.696  8.396e-04
 582.044  8.500e-04
 582.392  8.581e-04
 582.740  8.675e-04
 583.088  8.742e-04
 583.436  8.803e-04
 583.784  8.886e-04
 584.132  8.967e-04
 584.480  9.058e-04
 584.827  9.144e-04
 585.175  9.196e-04
 585.523  9.272e-04
 585.870  9.342e-04
 586.218  9.447e-04
 586.566  9.536e-04
 586.913  9.628e-04
 587.261  9.714e-04
 587.608  9.814e-04
 587.955  9.893e-04
 588.303  9.961e-04
 588.650  1.003e-03
 588.997  1.010e-03
 589.344  1.019e-03
 589.692  1.027e-03
 590.039  1.036e-03
 590.386  1.044e-03
 590.733  1.052e-03
 591.080  1.060e-03
 591.427  1.069e-03
 591.773  1.076e-03
 592.120  1.085e-03
 592.467  1.091e-03
 592.814  1.100e-03
 593.160  1.109e-03
 593.507  1.116e-03
 593.854  1.124e-03
 594.200  1.132e-03
 594.547  1.140e-03
 594.893  1.149e-03
 595.239  1.157e-03
 595.586  1.166e-03
 595.932  1.174e-03
 596.278  1.182e-03
 596.624  1.188e-03
 596.971  1.195e-03
 597.317  1.203e-03
 597.663  1.212e-03
 598.009  1.218e-03
 598.355  1.227e-03
 598.701  1.235e-03
 599.046  1.243e-03
 599.392  1.248e-03
 599.738  1.252e-03
 600.084  1.261e-03
 600.429  1.268e-03
 600.775  1.279e-03
 601.121  1.284e-03
 601.466  1.291e-03
 601.812  1.298e-03
 602.157  1.306e-03
 602.503  1.312e-03
 602.848  1.318e-03
 603.193  1.324e-03
 603.538  1.329e-03
 603.884  1.336e-03
 604.229  1.343e-03
 604.574  1.351e-03
 604.919  1.358e-03
 605.264  1.365e-03
 605.609  1.372e-03
 605.954  1.377e-03
 606.299  1.383e-03
 606.644  1.390e-03
 606.988  1.396e-03
 607.333  1.402e-03
 607.678  1.408e-03
 608.022  1.414e-03
 608.367  1.420e-03
 608.712  1.424e-03
 609.056  1.431e-03
 609.400  1.436e-03
 609.745  1.445e-03
 610.089  1.450e-03
 610.434  1.457e-03
 610.778  1.464e-03
 611.122  1.469e-03
 611.466  1.474e-03
 611.810  1.480e-03
 612.154  1.487e-03
 612.498  1.491e-03
 612.842  1.495e-03
 613.186  1.504e-03
 613.530  1.512e-03
 613.874  1.518e-03
 614.218  1.519e-03
 614.561  1.523e-03
 614.905  1.530e-03
 615.249  1.538e-03
 615.592  1.547e-03
 615.936  1.550e-03
 616.279  1.553e-03
 616.623  1.559e-03
 616.966  1.566e-03
 617.310  1.572e-03
 617.653  1.575e-03
 617.996  1.579e-03
 618.339  1.586e-03
 618.683  1.591e-03
 619.026  1.594e-03
 619.369  1.598e-03
 619.712  1.606e-03
 620.055  1.611e-03
 620.398  1.614e-03
 620.741  1.615e-03
 621.083  1.620e-03
 621.426  1.625e-03
 621.769  1.631e-03
 622.112  1.636e-03
 622.454  1.642e-03
 622.797  1.647e-03
 623.139  1.651e-03
 623.482  1.656e-03
 623.824  1.662e-03
 624.167  1.669e-03
 624.509  1.675e-03
 624.851  1.680e-03
 625.194  1.682e-03
 625.536  1.688e-03
 625.878  1.692e-03
 626.220  1.697e-03
 626.562  1.700e-03
 626.904  1.707e-03
 627.246  1.714e-03
 627.588  1.719e-03
 627.930  1.722e-03
 628.272  1.723e-03
 628.614  1.728e-03
 628.955  1.735e-03
 629.297  1.742e-03
 629.639  1.745e-03
 629.980  1.749e-03
 630.322  1.756e-03
 630.663  1.760e-03
 631.005  1.768e-03
 631.346  1.773e-03
 631.688  1.777e-03
 632.029  1.778e-03
 632.370  1.783e-03
 632.711  1.789e-03
 633.052  1.795e-03
 633.394  1.799e-03
 633.735  1.805e-03
 634.076  1.806e-03
 634.417  1.811e-03
 634.758  1.815e-03
 635.098  1.821e-03
 635.439  1.827e-03
 635.780  1.830e-03
 636.121  1.837e-03
 636.461  1.843e-03
 636.802  1.846e-03
 637.143  1.849e-03
 637.483  1.853e-03
 637.824  1.859e-03
 638.164  1.863e-03
 638.505  1.867e-03
 638.845  1.869e-03
 639.185  1.875e-03
 639.525  1.877e-03
 639.866  1.879e-03
 640.206  1.882e-03
 640.546  1.888e-03
 640.886  1.893e-03
 641.226  1.898e-03
 641.566  1.898e-03
 641.906  1.902e-03
 642.246  1.904e-03
 642.585  1.905e-03
 642.925  1.907e-03
 643.265  1.909e-03
 643.605  1.916e-03
 643.944  1.920e-03
 644.284  1.921e-03
 644.623  1.920e-03
 644.963  1.921e-03
 645.302  1.927e-03
 645.642  1.929e-03
 645.981  1.932e-03
 646.320  1.935e-03
 646.660  1.939e-03
 646.999  1.941e-03
 647.338  1.948e-03
 647.677  1.953e-03
 648.016  1.956e-03
 648.355  1.955e-03
 648.694  1.957e-03
 649.033  1.962e-03
 649.372  1.967e-03
 649.711  1.971e-03
 650.049  1.975e-03
 650.388  1.980e-03
 650.727  1.984e-03
 651.065  1.987e-03
 651.404  1.992e-03
 651.742  1.997e-03
 652.081  2.005e-03
 652.419  2.011e-03
 652.758  2.017e-03
 653.096  2.022e-03
 653.434  2.025e-03
 653.772  2.028e-03
 654.111  2.030e-03
 654.449  2.034e-03
 654.787  2.039e-03
 655.125  2.042e-03
 655.463  2.047e-03
 655.801  2.050e-03
 656.139  2.056e-03
 656.476  2.060e-03
 656.814  2.060e-03
 657.152  2.064e-03
 657.490  2.067e-03
 657.827  2.070e-03
 658.165  2.072e-03
 658.503  2.073e-03
 658.840  2.076e-03
 659.177  2.077e-03
 659.515  2.079e-03
 659.852  2.076e-03
 660.190  2.079e-03
 660.527  2.079e-03
 660.864  2.084e-03
 661.201  2.080e-03
 661.538  2.078e-03
 661.875  2.077e-03
 662.212  2.077e-03
 662.549  2.078e-03
 662.886  2.078e-03
 663.223  2.076e-03
 663.560  2.076e-03
 663.897  2.074e-03
 664.233  2.071e-03
 664.570  2.066e-03
 664.907  2.061e-03
 665.243  2.061e-03
 665.580  2.062e-03
 665.916  2.060e-03
 666.253  2.058e-03
 666.589  2.055e-03
 666.925  2.054e-03
 667.262  2.052e-03
 667.598  2.052e-03
 667.934  2.051e-03
 668.270  2.053e-03
 668.606  2.053e-03
 668.942  2.059e-03
 669.278  2.059e-03
 669.614  2.059e-03
 669.950  2.054e-03
 670.286  2.057e-03
 670.622  2.059e-03
 670.958  2.061e-03
 671.293  2.061e-03
 671.629  2.066e-03
 671.965  2.071e-03
 672.300  2.073e-03
 672.636  2.073e-03
 672.971  2.069e-03
 673.307  2.074e-03
 673.642  2.081e-03
 673.977  2.091e-03
 674.313  2.094e-03
 674.648  2.097e-03
 674.983  2.102e-03
 675.318  2.106e-03
 675.653  2.114e-03
 675.988  2.120e-03
 676.323  2.131e-03
 676.658  2.141e-03
 676.993  2.144e-03
 677.328  2.150e-03
 677.663  2.158e-03
 677.997  2.171e-03
 678.332  2.181e-03
 678.667  2.190e-03
 679.001  2.199e-03
 679.336  2.213e-03
 679.670  2.224e-03
 680.005  2.238e-03
 680.339  2.246e-03
 680.673  2.262e-03
 681.008  2.274e-03
 681.342  2.291e-03
 681.676  2.306e-03
 682.010  2.327e-03
 682.344  2.344e-03
 682.678  2.364e-03
 683.012  2.382e-03
 683.346  2.401e-03
 683.680  2.417e-03
 684.014  2.434e-03
 684.348  2.452e-03
 684.682  2.475e-03
 685.015  2.497e-03
 685.349  2.519e-03
 685.682  2.537e-03
 686.016  2.557e-03
 686.350  2.582e-03
 686.683  2.605e-03
 687.016  2.629e-03
 687.350  2.651e-03
 687.683  2.674e-03
 688.016  2.700e-03
